# scan = 10
# date = 9/4/2024
# time = 12:04:41 PM
# proposal = 32905
# experiment = Effects of electric field on phonon dispersion and lifetimes of poled PMN-30PT
# experiment_number = 812
# command = scan bat 0 38 2
# builtin_command = scan bat 0 38 2
# users = George Yumnam, Michael Manley, Puspa Upreti, Raphael Hermann, SHAOFEI WANG
# local_contact = Songxue Chi
# scan_title = slit scan with (200)
# monochromator = PG002
# analyzer = Pg002
# sense = -+-
# collimation = 48-40-40-120
# samplename = PMN-30PT
# sampletype = crystal
# samplemosaic = 30.000000
# latticeconstants = 4.023634,4.023634,4.023634,90.000000,90.000000,90.000000
# ubmatrix = -0.008055,-0.248252,-0.008588,-0.248328,0.007840,0.006285,-0.006007,0.008785,-0.248304
# mode = 0
# plane_normal = 0.034555,-0.025290,0.999083
# ubconf = UB04Sep2024_115522AM.ini
# preset_type = normal 
# preset_channel = time
# preset_value = 1.000000
# def_x = bat
# def_y = detector
# col_headers = 
#   Pt.        bat       time   detector    monitor        mcu focal_length         m1         m2   mcrystal       marc     mtrans     mfocus       ampl         dc       freq     output       temp     temp_2         s1         s2        sgl        sgu        bbb        bbl        bbr        bbt        bab        bal        bar        stl        stu         a1         a2          q          h          k          l         ei         ef          e   ampl_out output_state        vti     sample
      1     0.0000      1.000  22766.000    439.000      0.069    66.7975   -20.0773   -41.1658   120.0962    -0.1480    -3.0001   -34.2897     0.0000     0.0000     0.0000     1.0000   300.0000   300.0000   -52.2466    71.7891    -1.9790    -1.4500    38.0000    34.0000    34.0000    38.0000    38.0000    34.0000    34.0000    -0.0005     0.0005   159.4164   -41.1662     3.1232     2.0000     0.0000     0.0000    14.7003    14.7000     0.0003     2.0000     1.0000   300.0430     0.000
      2     2.0000      1.000  24182.000    472.000      0.074    66.7975   -20.0773   -41.1658   120.0962    -0.1480    -3.0001   -34.2897     0.0000     0.0000     0.0000     1.0000   300.0000   300.0000   -52.2466    71.7891    -1.9790    -1.4500    38.0000    34.0000    34.0000    38.0000    38.0000    34.0000    34.0000    -0.0005     0.0005   159.4164   -41.1662     3.1232     2.0000     0.0000     0.0000    14.7003    14.7000     0.0003     2.0000     1.0000   299.9920     0.000
      3     4.0000      1.000  25718.000    478.000      0.075    66.7975   -20.0773   -41.1658   120.0962    -0.1480    -3.0001   -34.2897     0.0000     0.0000     0.0000     1.0000   300.0000   300.0000   -52.2466    71.7891    -1.9790    -1.4500    38.0000    34.0000    34.0000    38.0000    38.0000    34.0000    34.0000    -0.0005     0.0005   159.4164   -41.1662     3.1232     2.0000     0.0000     0.0000    14.7003    14.7000     0.0003     2.0000     1.0000   299.9460     0.000
      4     6.0000      1.000  26818.000    502.000      0.079    66.7975   -20.0773   -41.1658   120.0962    -0.1480    -3.0001   -34.2897     0.0000     0.0000     0.0000     1.0000   300.0000   300.0000   -52.2466    71.7891    -1.9790    -1.4500    38.0000    34.0000    34.0000    38.0000    38.0000    34.0000    34.0000    -0.0005     0.0005   159.4164   -41.1662     3.1232     2.0000     0.0000     0.0000    14.7003    14.7000     0.0003     2.0000     1.0000   299.9550     0.000
      5     8.0000      1.000  27991.000    494.000      0.078    66.7975   -20.0773   -41.1658   120.0962    -0.1480    -3.0001   -34.2897     0.0000     0.0000     0.0000     1.0000   300.0000   300.0000   -52.2466    71.7891    -1.9790    -1.4500    38.0000    34.0000    34.0000    38.0000    38.0000    34.0000    34.0000    -0.0005     0.0005   159.4164   -41.1662     3.1232     2.0000     0.0000     0.0000    14.7003    14.7000     0.0003     2.0000     1.0000   299.9640     0.000
      6    10.0000      1.000  28597.000    495.000      0.078    66.7975   -20.0773   -41.1658   120.0962    -0.1480    -3.0001   -34.2897     0.0000     0.0000     0.0000     1.0000   300.0000   300.0000   -52.2466    71.7891    -1.9790    -1.4500    38.0000    34.0000    34.0000    38.0000    38.0000    34.0000    34.0000    -0.0005     0.0005   159.4164   -41.1662     3.1232     2.0000     0.0000     0.0000    14.7003    14.7000     0.0003     2.0000     1.0000   299.9260     0.000
      7    12.0000      1.000  29021.000    469.000      0.074    66.7975   -20.0773   -41.1658   120.0962    -0.1480    -3.0001   -34.2897     0.0000     0.0000     0.0000     1.0000   300.0000   300.0000   -52.2466    71.7891    -1.9790    -1.4500    38.0000    34.0000    34.0000    38.0000    38.0000    34.0000    34.0000    -0.0005     0.0005   159.4164   -41.1662     3.1232     2.0000     0.0000     0.0000    14.7003    14.7000     0.0003     2.0000     1.0000   299.9160     0.000
      8    14.0000      1.000  29751.000    496.000      0.078    66.7975   -20.0773   -41.1658   120.0962    -0.1480    -3.0001   -34.2897     0.0000     0.0000     0.0000     1.0000   300.0000   300.0000   -52.2466    71.7891    -1.9790    -1.4500    38.0000    34.0000    34.0000    38.0000    38.0000    34.0000    34.0000    -0.0005     0.0005   159.4164   -41.1662     3.1232     2.0000     0.0000     0.0000    14.7003    14.7000     0.0003     2.0000     1.0000   299.9650     0.000
      9    16.0000      1.000  30175.000    497.000      0.078    66.7975   -20.0773   -41.1658   120.0962    -0.1480    -3.0001   -34.2897     0.0000     0.0000     0.0000     1.0000   300.0000   300.0000   -52.2466    71.7891    -1.9790    -1.4500    38.0000    34.0000    34.0000    38.0000    38.0000    34.0000    34.0000    -0.0005     0.0005   159.4164   -41.1662     3.1232     2.0000     0.0000     0.0000    14.7003    14.7000     0.0003     2.0000     1.0000   299.9990     0.000
     10    18.0000      1.000  30388.000    483.000      0.076    66.7975   -20.0773   -41.1658   120.0962    -0.1480    -3.0001   -34.2897     0.0000     0.0000     0.0000     1.0000   300.0000   300.0000   -52.2466    71.7891    -1.9790    -1.4500    38.0000    34.0000    34.0000    38.0000    38.0000    34.0000    34.0000    -0.0005     0.0005   159.4164   -41.1662     3.1232     2.0000     0.0000     0.0000    14.7003    14.7000     0.0003     2.0000     1.0000   299.9630     0.000
     11    20.0000      1.000  30422.000    497.000      0.078    66.7975   -20.0773   -41.1658   120.0962    -0.1480    -3.0001   -34.2897     0.0000     0.0000     0.0000     1.0000   300.0000   300.0000   -52.2466    71.7891    -1.9790    -1.4500    38.0000    34.0000    34.0000    38.0000    38.0000    34.0000    34.0000    -0.0005     0.0005   159.4164   -41.1662     3.1232     2.0000     0.0000     0.0000    14.7003    14.7000     0.0003     2.0000     1.0000   299.9290     0.000
     12    22.0000      1.000  30553.000    497.000      0.078    66.7975   -20.0773   -41.1658   120.0962    -0.1480    -3.0001   -34.2897     0.0000     0.0000     0.0000     1.0000   300.0000   300.0000   -52.2466    71.7891    -1.9790    -1.4500    38.0000    34.0000    34.0000    38.0000    38.0000    34.0000    34.0000    -0.0005     0.0005   159.4164   -41.1662     3.1232     2.0000     0.0000     0.0000    14.7003    14.7000     0.0003     2.0000     1.0000   299.9620     0.000
     13    24.0000      1.000  29993.000    467.000      0.074    66.7975   -20.0773   -41.1658   120.0962    -0.1480    -3.0001   -34.2897     0.0000     0.0000     0.0000     1.0000   300.0000   300.0000   -52.2466    71.7891    -1.9790    -1.4500    38.0000    34.0000    34.0000    38.0000    38.0000    34.0000    34.0000    -0.0005     0.0005   159.4164   -41.1662     3.1232     2.0000     0.0000     0.0000    14.7003    14.7000     0.0003     2.0000     1.0000   300.0360     0.000
     14    26.0000      1.000  30335.000    438.000      0.069    66.7975   -20.0773   -41.1658   120.0962    -0.1480    -3.0001   -34.2897     0.0000     0.0000     0.0000     1.0000   300.0000   300.0000   -52.2466    71.7891    -1.9790    -1.4500    38.0000    34.0000    34.0000    38.0000    38.0000    34.0000    34.0000    -0.0005     0.0005   159.4164   -41.1662     3.1232     2.0000     0.0000     0.0000    14.7003    14.7000     0.0003     2.0000     1.0000   299.9920     0.000
     15    28.0000      1.000  30389.000    492.000      0.078    66.7975   -20.0773   -41.1658   120.0962    -0.1480    -3.0001   -34.2897     0.0000     0.0000     0.0000     1.0000   300.0000   300.0000   -52.2466    71.7891    -1.9790    -1.4500    38.0000    34.0000    34.0000    38.0000    38.0000    34.0000    34.0000    -0.0005     0.0005   159.4164   -41.1662     3.1232     2.0000     0.0000     0.0000    14.7003    14.7000     0.0003     2.0000     1.0000   300.0300     0.000
     16    30.0000      1.000  30372.000    476.000      0.075    66.7975   -20.0773   -41.1658   120.0962    -0.1480    -3.0001   -34.2897     0.0000     0.0000     0.0000     1.0000   300.0000   300.0000   -52.2466    71.7891    -1.9790    -1.4500    38.0000    34.0000    34.0000    38.0000    38.0000    34.0000    34.0000    -0.0005     0.0005   159.4164   -41.1662     3.1232     2.0000     0.0000     0.0000    14.7003    14.7000     0.0003     2.0000     1.0000   300.0240     0.000
     17    32.0000      1.000  30116.000    424.000      0.067    66.7975   -20.0773   -41.1658   120.0962    -0.1480    -3.0001   -34.2897     0.0000     0.0000     0.0000     1.0000   300.0000   300.0000   -52.2466    71.7891    -1.9790    -1.4500    38.0000    34.0000    34.0000    38.0000    38.0000    34.0000    34.0000    -0.0005     0.0005   159.4164   -41.1662     3.1232     2.0000     0.0000     0.0000    14.7003    14.7000     0.0003     2.0000     1.0000   299.9710     0.000
     18    34.0000      1.000  30357.000    488.000      0.077    66.7975   -20.0773   -41.1658   120.0962    -0.1480    -3.0001   -34.2897     0.0000     0.0000     0.0000     1.0000   300.0000   300.0000   -52.2466    71.7891    -1.9790    -1.4500    38.0000    34.0000    34.0000    38.0000    38.0000    34.0000    34.0000    -0.0005     0.0005   159.4164   -41.1662     3.1232     2.0000     0.0000     0.0000    14.7003    14.7000     0.0003     2.0000     1.0000   299.9300     0.000
     19    36.0000      1.000  30350.000    459.000      0.072    66.7975   -20.0773   -41.1658   120.0962    -0.1480    -3.0001   -34.2897     0.0000     0.0000     0.0000     1.0000   300.0000   300.0000   -52.2466    71.7891    -1.9790    -1.4500    38.0000    34.0000    34.0000    38.0000    38.0000    34.0000    34.0000    -0.0005     0.0005   159.4164   -41.1662     3.1232     2.0000     0.0000     0.0000    14.7003    14.7000     0.0003     2.0000     1.0000   300.0060     0.000
     20    38.0000      1.000  30040.000    473.000      0.075    66.7975   -20.0773   -41.1658   120.0962    -0.1480    -3.0001   -34.2897     0.0000     0.0000     0.0000     1.0000   300.0000   300.0000   -52.2466    71.7891    -1.9790    -1.4500    38.0000    34.0000    34.0000    38.0000    38.0000    34.0000    34.0000    -0.0005     0.0005   159.4164   -41.1662     3.1232     2.0000     0.0000     0.0000    14.7003    14.7000     0.0003     2.0000     1.0000   300.0550     0.000
# Sum of Counts = 578334
# Center of Mass = 19.707923+/-0.039538
# Full Width Half-Maximum = 22.565288+/-0.030439
# 12:06:32 PM  9/4/2024   scan completed.
