# scan = 204
# date = 9/9/2024
# time = 6:41:57 AM
# proposal = 32905
# experiment = Effects of electric field on phonon dispersion and lifetimes of poled PMN-30PT
# experiment_number = 812
# command = scan h 2 k -0.2 l 0 e 20 0.5 0.25 preset mcu 30
# builtin_command = scan h 2 k -0.2 l 0 e 20 0.5 0.25 preset mcu 30
# users = George Yumnam, Michael Manley, Puspa Upreti, Raphael Hermann, SHAOFEI WANG
# local_contact = Songxue Chi
# scan_title = (2,-0.2,0) G to X transverse mode scan at 0V ramping down
# monochromator = PG002
# analyzer = Pg002
# sense = -+-
# collimation = 48-40-40-120
# samplename = PMN-30PT
# sampletype = crystal
# samplemosaic = 30.000000
# latticeconstants = 4.023634,4.023634,4.023634,90.000000,90.000000,90.000000
# ubmatrix = -0.008055,-0.248252,-0.008588,-0.248328,0.007840,0.006285,-0.006007,0.008785,-0.248304
# mode = 0
# plane_normal = 0.034555,-0.025290,0.999083
# ubconf = UB04Sep2024_115522AM.ini
# preset_type = normal 
# preset_channel = mcu
# preset_value = 30.000000
# def_x = e
# def_y = detector
# col_headers = 
#   Pt.          h          k          l          e       time   detector    monitor        mcu focal_length         m1         m2   mcrystal       marc     mtrans     mfocus       ampl         dc       freq     output       temp     temp_2         s1         s2        sgl        sgu        bbb        bbl        bbr        bbt        bab        bal        bar        bat        stl        stu         a1         a2          q         ei         ef   ampl_out output_state        vti     sample
      1     2.0000    -0.2001    -0.0001    20.0028     25.107     37.000 194311.000     30.000    43.4765   -20.0773   -26.4545   120.0962    -0.1480    -3.0001   -54.2224     0.0000     0.0000     0.0000     1.0000   300.0000   300.0000   -44.4556    50.0779    -1.9790    -1.4485    20.0000    20.0000    10.0000    20.0000    26.0000    10.0000    16.0000    20.0000    -0.0005     0.0005   159.4164   -41.1662     3.1387    34.7028    14.7000     2.0000     1.0000   300.0680     0.000
      2     2.0000    -0.2000    -0.0001    19.7498     25.108     28.000 194311.000     30.000    43.6339   -20.0773   -26.5533   120.0962    -0.1480    -3.0001   -54.0105     0.0000     0.0000     0.0000     1.0000   300.0000   300.0000   -44.6279    50.3222    -1.9790    -1.4485    20.0000    20.0000    10.0000    20.0000    26.0000    10.0000    16.0000    20.0000    -0.0005     0.0005   159.4164   -41.1662     3.1387    34.4498    14.7000     2.0000     1.0000   300.0370     0.000
      3     2.0001    -0.2000    -0.0001    19.4998     25.007     29.000 194311.000     30.000    43.7931   -20.0773   -26.6519   120.0962    -0.1480    -3.0001   -53.7978     0.0000     0.0000     0.0000     1.0000   300.0000   300.0000   -44.8011    50.5647    -1.9790    -1.4485    20.0000    20.0000    10.0000    20.0000    26.0000    10.0000    16.0000    20.0000    -0.0005     0.0005   159.4164   -41.1662     3.1388    34.1998    14.7000     2.0000     1.0000   300.0080     0.000
      4     2.0001    -0.2000    -0.0001    19.2501     25.159     27.000 194311.000     30.000    43.9541   -20.0773   -26.7516   120.0962    -0.1480    -3.0001   -53.5845     0.0000     0.0000     0.0000     1.0000   300.0000   300.0000   -44.9726    50.8058    -1.9790    -1.4485    20.0000    20.0000    10.0000    20.0000    26.0000    10.0000    16.0000    20.0000    -0.0005     0.0005   159.4164   -41.1662     3.1388    33.9501    14.7000     2.0000     1.0000   300.0080     0.000
      5     2.0000    -0.2000    -0.0001    19.0004     25.337     41.000 194311.000     30.000    44.1168   -20.0773   -26.8523   120.0962    -0.1480    -3.0001   -53.3706     0.0000     0.0000     0.0000     1.0000   300.0000   300.0000   -45.1448    51.0460    -1.9790    -1.4485    20.0000    20.0000    10.0000    20.0000    26.0000    10.0000    16.0000    20.0000    -0.0005     0.0005   159.4164   -41.1662     3.1387    33.7005    14.7000     2.0000     1.0000   300.0080     0.000
      6     2.0000    -0.2000    -0.0001    18.7494     25.386     38.000 194311.000     30.000    44.2813   -20.0773   -26.9548   120.0962    -0.1480    -3.0001   -53.1560     0.0000     0.0000     0.0000     1.0000   300.0000   300.0000   -45.3166    51.2885    -1.9790    -1.4485    20.0000    20.0000    10.0000    20.0000    26.0000    10.0000    16.0000    20.0000    -0.0005     0.0005   159.4164   -41.1662     3.1387    33.4494    14.7000     2.0000     1.0000   300.0050     0.000
      7     2.0000    -0.2000    -0.0001    18.5001     25.566     25.000 194311.000     30.000    44.4478   -20.0773   -27.0577   120.0962    -0.1480    -3.0001   -52.9407     0.0000     0.0000     0.0000     1.0000   300.0000   300.0000   -45.4879    51.5310    -1.9790    -1.4485    20.0000    20.0000    10.0000    20.0000    26.0000    10.0000    16.0000    20.0000    -0.0005     0.0005   159.4164   -41.1662     3.1388    33.2001    14.7000     2.0000     1.0000   299.9980     0.000
      8     2.0001    -0.2000    -0.0001    18.2502     25.809     32.000 194311.000     30.000    44.6161   -20.0773   -27.1621   120.0962    -0.1480    -3.0001   -52.7248     0.0000     0.0000     0.0000     1.0000   300.0000   300.0000   -45.6595    51.7759    -1.9790    -1.4485    20.0000    20.0000    10.0000    20.0000    26.0000    10.0000    16.0000    20.0000    -0.0005     0.0005   159.4164   -41.1662     3.1388    32.9502    14.7000     2.0000     1.0000   299.9690     0.000
      9     2.0000    -0.2000    -0.0001    17.9998     25.948     25.000 194311.000     30.000    44.7863   -20.0773   -27.2679   120.0962    -0.1480    -3.0001   -52.5081     0.0000     0.0000     0.0000     1.0000   300.0000   300.0000   -45.8306    52.0170    -1.9790    -1.4485    20.0000    20.0000    10.0000    20.0000    26.0000    10.0000    16.0000    20.0000    -0.0005     0.0005   159.4164   -41.1662     3.1387    32.6998    14.7000     2.0000     1.0000   300.0160     0.000
     10     2.0000    -0.2000    -0.0001    17.7505     26.103     27.000 194311.000     30.000    44.9585   -20.0773   -27.3745   120.0962    -0.1480    -3.0001   -52.2908     0.0000     0.0000     0.0000     1.0000   300.0000   300.0000   -46.0014    52.2607    -1.9790    -1.4485    20.0000    20.0000    10.0000    20.0000    26.0000    10.0000    16.0000    20.0000    -0.0005     0.0005   159.4164   -41.1662     3.1388    32.4505    14.7000     2.0000     1.0000   299.9690     0.000
     11     2.0000    -0.2000    -0.0001    17.4997     26.232     31.000 194311.000     30.000    45.1326   -20.0773   -27.4829   120.0962    -0.1480    -3.0001   -52.0728     0.0000     0.0000     0.0000     1.0000   300.0000   300.0000   -46.1721    52.5044    -1.9790    -1.4485    20.0000    20.0000    10.0000    20.0000    26.0000    10.0000    16.0000    20.0000    -0.0005     0.0005   159.4164   -41.1662     3.1387    32.1997    14.7000     2.0000     1.0000   300.0250     0.000
     12     2.0001    -0.2000    -0.0001    17.2499     26.331     35.000 194311.000     30.000    45.3089   -20.0773   -27.5923   120.0962    -0.1480    -3.0001   -51.8540     0.0000     0.0000     0.0000     1.0000   300.0000   300.0000   -46.3425    52.7505    -1.9790    -1.4485    20.0000    20.0000    10.0000    20.0000    26.0000    10.0000    16.0000    20.0000    -0.0005     0.0005   159.4164   -41.1662     3.1388    31.9499    14.7000     2.0000     1.0000   300.0050     0.000
     13     2.0001    -0.2000    -0.0001    17.0001     26.387     37.000 194311.000     30.000    45.4872   -20.0773   -27.7029   120.0962    -0.1480    -3.0001   -51.6345     0.0000     0.0000     0.0000     1.0000   300.0000   300.0000   -46.5131    52.9962    -1.9790    -1.4485    20.0000    20.0000    10.0000    20.0000    26.0000    10.0000    16.0000    20.0000    -0.0005     0.0005   159.4164   -41.1662     3.1388    31.7001    14.7000     2.0000     1.0000   299.9920     0.000
     14     2.0000    -0.2000    -0.0001    16.7497     26.617     34.000 194311.000     30.000    45.6676   -20.0773   -27.8152   120.0962    -0.1480    -3.0001   -51.4143     0.0000     0.0000     0.0000     1.0000   300.0000   300.0000   -46.6831    53.2395    -1.9790    -1.4485    20.0000    20.0000    10.0000    20.0000    26.0000    10.0000    16.0000    20.0000    -0.0005     0.0005   159.4164   -41.1662     3.1387    31.4497    14.7000     2.0000     1.0000   300.0070     0.000
     15     2.0000    -0.2000    -0.0001    16.5001     26.568     24.000 194311.000     30.000    45.8503   -20.0773   -27.9285   120.0962    -0.1480    -3.0001   -51.1934     0.0000     0.0000     0.0000     1.0000   300.0000   300.0000   -46.8535    53.4842    -1.9790    -1.4485    20.0000    20.0000    10.0000    20.0000    26.0000    10.0000    16.0000    20.0000    -0.0005     0.0005   159.4164   -41.1662     3.1387    31.2001    14.7000     2.0000     1.0000   300.0040     0.000
     16     2.0000    -0.2000    -0.0001    16.2499     26.637     43.000 194311.000     30.000    46.0351   -20.0773   -28.0435   120.0962    -0.1480    -3.0001   -50.9717     0.0000     0.0000     0.0000     1.0000   300.0000   300.0000   -47.0229    53.7322    -1.9790    -1.4485    20.0000    20.0000    10.0000    20.0000    26.0000    10.0000    16.0000    20.0000    -0.0005     0.0005   159.4164   -41.1662     3.1388    30.9499    14.7000     2.0000     1.0000   300.0040     0.000
     17     2.0001    -0.2000    -0.0001    15.9997     26.733     50.000 194311.000     30.000    46.2221   -20.0773   -28.1599   120.0962    -0.1480    -3.0001   -50.7492     0.0000     0.0000     0.0000     1.0000   300.0000   300.0000   -47.1929    53.9814    -1.9790    -1.4485    20.0000    20.0000    10.0000    20.0000    26.0000    10.0000    16.0000    20.0000    -0.0005     0.0005   159.4164   -41.1662     3.1388    30.6997    14.7000     2.0000     1.0000   299.9990     0.000
     18     2.0000    -0.2000    -0.0001    15.7505     26.820     44.000 194311.000     30.000    46.4115   -20.0773   -28.2773   120.0962    -0.1480    -3.0001   -50.5260     0.0000     0.0000     0.0000     1.0000   300.0000   300.0000   -47.3624    54.2269    -1.9790    -1.4485    20.0000    20.0000    10.0000    20.0000    26.0000    10.0000    16.0000    20.0000    -0.0005     0.0005   159.4164   -41.1662     3.1388    30.4505    14.7000     2.0000     1.0000   299.9850     0.000
     19     2.0000    -0.2000    -0.0001    15.4998     26.994     54.000 194311.000     30.000    46.6032   -20.0773   -28.3968   120.0962    -0.1480    -3.0001   -50.3021     0.0000     0.0000     0.0000     1.0000   300.0000   300.0000   -47.5320    54.4751    -1.9790    -1.4485    20.0000    20.0000    10.0000    20.0000    26.0000    10.0000    16.0000    20.0000    -0.0005     0.0005   159.4164   -41.1662     3.1388    30.1998    14.7000     2.0000     1.0000   299.9960     0.000
     20     2.0000    -0.2000    -0.0001    15.2500     26.994     50.000 194311.000     30.000    46.7972   -20.0773   -28.5175   120.0962    -0.1480    -3.0001   -50.0773     0.0000     0.0000     0.0000     1.0000   300.0000   300.0000   -47.7011    54.7229    -1.9790    -1.4485    20.0000    20.0000    10.0000    20.0000    26.0000    10.0000    16.0000    20.0000    -0.0005     0.0005   159.4164   -41.1662     3.1387    29.9500    14.7000     2.0000     1.0000   300.0070     0.000
     21     2.0001    -0.2000    -0.0001    15.0002     27.120     46.000 194311.000     30.000    46.9938   -20.0773   -28.6397   120.0962    -0.1480    -3.0001   -49.8518     0.0000     0.0000     0.0000     1.0000   300.0000   300.0000   -47.8700    54.9755    -1.9790    -1.4485    20.0000    20.0000    10.0000    20.0000    26.0000    10.0000    16.0000    20.0000    -0.0005     0.0005   159.4164   -41.1662     3.1389    29.7002    14.7000     2.0000     1.0000   299.9970     0.000
     22     2.0000    -0.2000    -0.0001    14.7497     26.958     71.000 194311.000     30.000    47.1929   -20.0773   -28.7639   120.0962    -0.1480    -3.0001   -49.6254     0.0000     0.0000     0.0000     1.0000   300.0000   300.0000   -48.0393    55.2235    -1.9790    -1.4485    20.0000    20.0000    10.0000    20.0000    26.0000    10.0000    16.0000    20.0000    -0.0005     0.0005   159.4164   -41.1662     3.1388    29.4497    14.7000     2.0000     1.0000   300.0180     0.000
     23     2.0000    -0.2000    -0.0001    14.5000     26.702     66.000 194311.000     30.000    47.3944   -20.0773   -28.8893   120.0962    -0.1480    -3.0001   -49.3982     0.0000     0.0000     0.0000     1.0000   300.0000   300.0000   -48.2076    55.4718    -1.9790    -1.4485    20.0000    20.0000    10.0000    20.0000    26.0000    10.0000    16.0000    20.0000    -0.0005     0.0005   159.4164   -41.1662     3.1387    29.2000    14.7000     2.0000     1.0000   300.0000     0.000
     24     2.0001    -0.2000    -0.0001    14.2506     26.257     78.000 194311.000     30.000    47.5986   -20.0773   -29.0162   120.0962    -0.1480    -3.0001   -49.1702     0.0000     0.0000     0.0000     1.0000   300.0000   300.0000   -48.3768    55.7247    -1.9790    -1.4485    20.0000    20.0000    10.0000    20.0000    26.0000    10.0000    16.0000    20.0000    -0.0005     0.0005   159.4164   -41.1662     3.1388    28.9506    14.7000     2.0000     1.0000   300.0020     0.000
     25     2.0000    -0.2000    -0.0001    13.9994     25.903     95.000 194311.000     30.000    47.8055   -20.0773   -29.1456   120.0962    -0.1480    -3.0001   -48.9414     0.0000     0.0000     0.0000     1.0000   300.0000   300.0000   -48.5451    55.9769    -1.9790    -1.4485    20.0000    20.0000    10.0000    20.0000    26.0000    10.0000    16.0000    20.0000    -0.0005     0.0005   159.4164   -41.1662     3.1388    28.6995    14.7000     2.0000     1.0000   300.0030     0.000
     26     2.0000    -0.2000    -0.0001    13.7503     25.666     91.000 194311.000     30.000    48.0151   -20.0773   -29.2758   120.0962    -0.1480    -3.0001   -48.7117     0.0000     0.0000     0.0000     1.0000   300.0000   300.0000   -48.7139    56.2269    -1.9790    -1.4485    20.0000    20.0000    10.0000    20.0000    26.0000    10.0000    16.0000    20.0000    -0.0005     0.0005   159.4164   -41.1662     3.1387    28.4503    14.7000     2.0000     1.0000   300.0090     0.000
     27     2.0000    -0.2000    -0.0001    13.5003     25.428    112.000 194311.000     30.000    48.2274   -20.0773   -29.4082   120.0962    -0.1480    -3.0001   -48.4811     0.0000     0.0000     0.0000     1.0000   300.0000   300.0000   -48.8816    56.4812    -1.9790    -1.4485    20.0000    20.0000    10.0000    20.0000    26.0000    10.0000    16.0000    20.0000    -0.0005     0.0005   159.4164   -41.1662     3.1387    28.2003    14.7000     2.0000     1.0000   300.0140     0.000
     28     2.0000    -0.2000    -0.0001    13.2496     25.391    107.000 194311.000     30.000    48.4427   -20.0773   -29.5428   120.0962    -0.1480    -3.0001   -48.2497     0.0000     0.0000     0.0000     1.0000   300.0000   300.0000   -49.0500    56.7359    -1.9790    -1.4485    20.0000    20.0000    10.0000    20.0000    26.0000    10.0000    16.0000    20.0000    -0.0005     0.0005   159.4164   -41.1662     3.1387    27.9496    14.7000     2.0000     1.0000   300.0080     0.000
     29     2.0001    -0.2000    -0.0001    13.0000     25.434     93.000 194311.000     30.000    48.6608   -20.0773   -29.6786   120.0962    -0.1480    -3.0001   -48.0174     0.0000     0.0000     0.0000     1.0000   300.0000   300.0000   -49.2180    56.9940    -1.9790    -1.4485    20.0000    20.0000    10.0000    20.0000    26.0000    10.0000    16.0000    20.0000    -0.0005     0.0005   159.4164   -41.1662     3.1389    27.7000    14.7000     2.0000     1.0000   300.0040     0.000
     30     2.0001    -0.2000    -0.0001    12.7500     25.749     99.000 194311.000     30.000    48.8819   -20.0773   -29.8166   120.0962    -0.1480    -3.0001   -47.7842     0.0000     0.0000     0.0000     1.0000   300.0000   300.0000   -49.3860    57.2477    -1.9790    -1.4485    20.0000    20.0000    10.0000    20.0000    26.0000    10.0000    16.0000    20.0000    -0.0005     0.0005   159.4164   -41.1662     3.1388    27.4500    14.7000     2.0000     1.0000   300.0110     0.000
     31     2.0000    -0.2000    -0.0001    12.4999     26.299     88.000 194311.000     30.000    49.1060   -20.0773   -29.9566   120.0962    -0.1480    -3.0001   -47.5501     0.0000     0.0000     0.0000     1.0000   300.0000   300.0000   -49.5540    57.5029    -1.9790    -1.4485    20.0000    20.0000    10.0000    20.0000    26.0000    10.0000    16.0000    20.0000    -0.0005     0.0005   159.4164   -41.1662     3.1387    27.1999    14.7000     2.0000     1.0000   300.0100     0.000
     32     2.0001    -0.2000    -0.0001    12.2504     26.688    109.000 194311.000     30.000    49.3332   -20.0773   -30.0982   120.0962    -0.1480    -3.0001   -47.3151     0.0000     0.0000     0.0000     1.0000   300.0000   300.0000   -49.7211    57.7621    -1.9790    -1.4485    20.0000    20.0000    10.0000    20.0000    26.0000    10.0000    16.0000    20.0000    -0.0005     0.0005   159.4164   -41.1662     3.1389    26.9504    14.7000     2.0000     1.0000   300.0090     0.000
     33     2.0000    -0.2000    -0.0001    11.9997     26.791     74.000 194311.000     30.000    49.5636   -20.0773   -30.2425   120.0962    -0.1480    -3.0001   -47.0791     0.0000     0.0000     0.0000     1.0000   300.0000   300.0000   -49.8891    58.0184    -1.9790    -1.4485    20.0000    20.0000    10.0000    20.0000    26.0000    10.0000    16.0000    20.0000    -0.0005     0.0005   159.4164   -41.1662     3.1387    26.6997    14.7000     2.0000     1.0000   300.0100     0.000
     34     2.0000    -0.2000    -0.0001    11.7500     26.844     71.000 194311.000     30.000    49.7973   -20.0773   -30.3883   120.0962    -0.1480    -3.0001   -46.8422     0.0000     0.0000     0.0000     1.0000   300.0000   300.0000   -50.0562    58.2769    -1.9790    -1.4485    20.0000    20.0000    10.0000    20.0000    26.0000    10.0000    16.0000    20.0000    -0.0005     0.0005   159.4164   -41.1662     3.1387    26.4500    14.7000     2.0000     1.0000   299.9450     0.000
     35     2.0000    -0.2000    -0.0001    11.5001     26.808     75.000 194311.000     30.000    50.0343   -20.0773   -30.5364   120.0962    -0.1480    -3.0001   -46.6044     0.0000     0.0000     0.0000     1.0000   300.0000   300.0000   -50.2240    58.5375    -1.9790    -1.4485    20.0000    20.0000    10.0000    20.0000    26.0000    10.0000    16.0000    20.0000    -0.0005     0.0005   159.4164   -41.1662     3.1387    26.2001    14.7000     2.0000     1.0000   299.9970     0.000
     36     2.0001    -0.2000    -0.0001    11.2502     26.583     78.000 194311.000     30.000    50.2748   -20.0773   -30.6868   120.0962    -0.1480    -3.0001   -46.3655     0.0000     0.0000     0.0000     1.0000   300.0000   300.0000   -50.3908    58.8017    -1.9790    -1.4485    20.0000    20.0000    10.0000    20.0000    26.0000    10.0000    16.0000    20.0000    -0.0005     0.0005   159.4164   -41.1662     3.1389    25.9502    14.7000     2.0000     1.0000   300.0140     0.000
     37     2.0000    -0.2000    -0.0001    11.0001     26.357     66.000 194311.000     30.000    50.5187   -20.0773   -30.8394   120.0962    -0.1480    -3.0001   -46.1257     0.0000     0.0000     0.0000     1.0000   300.0000   300.0000   -50.5581    59.0586    -1.9790    -1.4485    20.0000    20.0000    10.0000    20.0000    26.0000    10.0000    16.0000    20.0000    -0.0005     0.0005   159.4164   -41.1662     3.1386    25.7001    14.7000     2.0000     1.0000   300.0040     0.000
     38     2.0000    -0.2000    -0.0001    10.7501     26.152     59.000 194311.000     30.000    50.7662   -20.0773   -30.9943   120.0962    -0.1480    -3.0001   -45.8849     0.0000     0.0000     0.0000     1.0000   300.0000   300.0000   -50.7249    59.3241    -1.9790    -1.4485    20.0000    20.0000    10.0000    20.0000    26.0000    10.0000    16.0000    20.0000    -0.0005     0.0005   159.4164   -41.1662     3.1388    25.4501    14.7000     2.0000     1.0000   300.0210     0.000
     39     2.0000    -0.2000    -0.0001    10.5000     26.032     63.000 194311.000     30.000    51.0174   -20.0773   -31.1516   120.0962    -0.1480    -3.0001   -45.6430     0.0000     0.0000     0.0000     1.0000   300.0000   300.0000   -50.8920    59.5891    -1.9790    -1.4485    20.0000    20.0000    10.0000    20.0000    26.0000    10.0000    16.0000    20.0000    -0.0005     0.0005   159.4164   -41.1662     3.1388    25.2000    14.7000     2.0000     1.0000   300.0050     0.000
     40     2.0000    -0.2000    -0.0001    10.2503     26.213     61.000 194311.000     30.000    51.2724   -20.0773   -31.3110   120.0962    -0.1480    -3.0001   -45.4002     0.0000     0.0000     0.0000     1.0000   300.0000   300.0000   -51.0589    59.8525    -1.9790    -1.4485    20.0000    20.0000    10.0000    20.0000    26.0000    10.0000    16.0000    20.0000    -0.0005     0.0005   159.4164   -41.1662     3.1387    24.9504    14.7000     2.0000     1.0000   300.0000     0.000
     41     2.0000    -0.2000    -0.0001    10.0000     26.429     57.000 194311.000     30.000    51.5312   -20.0773   -31.4734   120.0962    -0.1480    -3.0001   -45.1562     0.0000     0.0000     0.0000     1.0000   300.0000   300.0000   -51.2251    60.1198    -1.9790    -1.4485    20.0000    20.0000    10.0000    20.0000    26.0000    10.0000    16.0000    20.0000    -0.0005     0.0005   159.4164   -41.1662     3.1388    24.7000    14.7000     2.0000     1.0000   300.0020     0.000
     42     2.0001    -0.2000    -0.0001     9.7497     26.843     56.000 194311.000     30.000    51.7940   -20.0773   -31.6383   120.0962    -0.1480    -3.0001   -44.9112     0.0000     0.0000     0.0000     1.0000   300.0000   300.0000   -51.3920    60.3905    -1.9790    -1.4485    20.0000    20.0000    10.0000    20.0000    26.0000    10.0000    16.0000    20.0000    -0.0005     0.0005   159.4164   -41.1662     3.1389    24.4497    14.7000     2.0000     1.0000   299.9610     0.000
     43     2.0000    -0.2000    -0.0001     9.4997     27.167     53.000 194311.000     30.000    52.0609   -20.0773   -31.8056   120.0962    -0.1480    -3.0001   -44.6652     0.0000     0.0000     0.0000     1.0000   300.0000   300.0000   -51.5585    60.6550    -1.9790    -1.4485    20.0000    20.0000    10.0000    20.0000    26.0000    10.0000    16.0000    20.0000    -0.0005     0.0005   159.4164   -41.1662     3.1387    24.1997    14.7000     2.0000     1.0000   300.0260     0.000
     44     2.0000    -0.2000    -0.0001     9.2502     27.447     57.000 194311.000     30.000    52.3319   -20.0773   -31.9753   120.0962    -0.1480    -3.0001   -44.4180     0.0000     0.0000     0.0000     1.0000   300.0000   300.0000   -51.7245    60.9261    -1.9790    -1.4485    20.0000    20.0000    10.0000    20.0000    26.0000    10.0000    16.0000    20.0000    -0.0005     0.0005   159.4164   -41.1662     3.1388    23.9502    14.7000     2.0000     1.0000   300.0160     0.000
     45     2.0001    -0.2000    -0.0001     9.0000     27.271     75.000 194311.000     30.000    52.6071   -20.0773   -32.1481   120.0962    -0.1480    -3.0001   -44.1697     0.0000     0.0000     0.0000     1.0000   300.0000   300.0000   -51.8910    61.1995    -1.9790    -1.4485    20.0000    20.0000    10.0000    20.0000    26.0000    10.0000    16.0000    20.0000    -0.0005     0.0005   159.4164   -41.1662     3.1389    23.7000    14.7000     2.0000     1.0000   300.0040     0.000
     46     2.0000    -0.2000    -0.0001     8.7502     26.720     49.000 194311.000     30.000    52.8868   -20.0773   -32.3236   120.0962    -0.1480    -3.0001   -43.9203     0.0000     0.0000     0.0000     1.0000   300.0000   300.0000   -52.0569    61.4682    -1.9790    -1.4485    20.0000    20.0000    10.0000    20.0000    26.0000    10.0000    16.0000    20.0000    -0.0005     0.0005   159.4164   -41.1662     3.1387    23.4502    14.7000     2.0000     1.0000   300.0020     0.000
     47     2.0000    -0.2000    -0.0001     8.5002     25.993     55.000 194311.000     30.000    53.1710   -20.0773   -32.5021   120.0962    -0.1480    -3.0001   -43.6697     0.0000     0.0000     0.0000     1.0000   300.0000   300.0000   -52.2231    61.7424    -1.9790    -1.4485    20.0000    20.0000    10.0000    20.0000    26.0000    10.0000    16.0000    20.0000    -0.0005     0.0005   159.4164   -41.1662     3.1387    23.2002    14.7000     2.0000     1.0000   300.0000     0.000
     48     2.0000    -0.2000    -0.0001     8.2499     25.165     72.000 194311.000     30.000    53.4598   -20.0773   -32.6837   120.0962    -0.1480    -3.0001   -43.4180     0.0000     0.0000     0.0000     1.0000   300.0000   300.0000   -52.3889    62.0186    -1.9790    -1.4485    20.0000    20.0000    10.0000    20.0000    26.0000    10.0000    16.0000    20.0000    -0.0005     0.0005   159.4164   -41.1662     3.1388    22.9499    14.7000     2.0000     1.0000   299.9990     0.000
     49     2.0000    -0.2000    -0.0001     8.0000     24.441     65.000 194311.000     30.000    53.7534   -20.0773   -32.8682   120.0962    -0.1480    -3.0001   -43.1651     0.0000     0.0000     0.0000     1.0000   300.0000   300.0000   -52.5546    62.2936    -1.9790    -1.4485    20.0000    20.0000    10.0000    20.0000    26.0000    10.0000    16.0000    20.0000    -0.0005     0.0005   159.4164   -41.1662     3.1387    22.7000    14.7000     2.0000     1.0000   300.0210     0.000
     50     2.0000    -0.2000    -0.0001     7.7499     24.054     60.000 194311.000     30.000    54.0519   -20.0773   -33.0560   120.0962    -0.1480    -3.0001   -42.9109     0.0000     0.0000     0.0000     1.0000   300.0000   300.0000   -52.7200    62.5720    -1.9790    -1.4485    20.0000    20.0000    10.0000    20.0000    26.0000    10.0000    16.0000    20.0000    -0.0005     0.0005   159.4164   -41.1662     3.1387    22.4499    14.7000     2.0000     1.0000   299.9440     0.000
     51     1.9999    -0.2000    -0.0001     7.5001     23.732     60.000 194311.000     30.000    54.3554   -20.0773   -33.2469   120.0962    -0.1480    -3.0001   -42.6556     0.0000     0.0000     0.0000     1.0000   300.0000   300.0000   -52.8858    62.8487    -1.9790    -1.4485    20.0000    20.0000    10.0000    20.0000    26.0000    10.0000    16.0000    20.0000    -0.0005     0.0005   159.4164   -41.1662     3.1386    22.2001    14.7000     2.0000     1.0000   300.0090     0.000
     52     2.0000    -0.2000    -0.0001     7.2502     23.808     65.000 194311.000     30.000    54.6640   -20.0773   -33.4411   120.0962    -0.1480    -3.0001   -42.3989     0.0000     0.0000     0.0000     1.0000   300.0000   300.0000   -53.0511    63.1328    -1.9790    -1.4485    20.0000    20.0000    10.0000    20.0000    26.0000    10.0000    16.0000    20.0000    -0.0005     0.0005   159.4164   -41.1662     3.1388    21.9502    14.7000     2.0000     1.0000   299.9950     0.000
     53     2.0000    -0.2000    -0.0001     6.9996     23.663     62.000 194311.000     30.000    54.9780   -20.0773   -33.6393   120.0962    -0.1480    -3.0001   -42.1410     0.0000     0.0000     0.0000     1.0000   300.0000   300.0000   -53.2164    63.4145    -1.9790    -1.4485    20.0000    20.0000    10.0000    20.0000    26.0000    10.0000    16.0000    20.0000    -0.0005     0.0005   159.4164   -41.1662     3.1387    21.6996    14.7000     2.0000     1.0000   300.0030     0.000
     54     2.0000    -0.2000    -0.0001     6.7503     23.713     77.000 194311.000     30.000    55.2975   -20.0773   -33.8401   120.0962    -0.1480    -3.0001   -41.8818     0.0000     0.0000     0.0000     1.0000   300.0000   300.0000   -53.3815    63.6981    -1.9790    -1.4485    20.0000    20.0000    10.0000    20.0000    26.0000    10.0000    16.0000    20.0000    -0.0005     0.0005   159.4164   -41.1662     3.1387    21.4503    14.7000     2.0000     1.0000   300.0060     0.000
     55     2.0000    -0.2000    -0.0001     6.4998     24.063     79.000 194311.000     30.000    55.6225   -20.0773   -34.0455   120.0962    -0.1480    -3.0001   -41.6214     0.0000     0.0000     0.0000     1.0000   300.0000   300.0000   -53.5464    63.9851    -1.9790    -1.4485    20.0000    20.0000    10.0000    20.0000    26.0000    10.0000    16.0000    20.0000    -0.0005     0.0005   159.4164   -41.1662     3.1388    21.1998    14.7000     2.0000     1.0000   300.0210     0.000
     56     2.0000    -0.2000    -0.0001     6.2501     24.319     75.000 194311.000     30.000    55.9535   -20.0773   -34.2541   120.0962    -0.1480    -3.0001   -41.3595     0.0000     0.0000     0.0000     1.0000   300.0000   300.0000   -53.7114    64.2714    -1.9790    -1.4485    20.0000    20.0000    10.0000    20.0000    26.0000    10.0000    16.0000    20.0000    -0.0005     0.0005   159.4164   -41.1662     3.1387    20.9501    14.7000     2.0000     1.0000   300.0060     0.000
     57     2.0000    -0.2000    -0.0001     5.9999     24.705    103.000 194311.000     30.000    56.2903   -20.0773   -34.4669   120.0962    -0.1480    -3.0001   -41.0963     0.0000     0.0000     0.0000     1.0000   300.0000   300.0000   -53.8759    64.5609    -1.9790    -1.4485    20.0000    20.0000    10.0000    20.0000    26.0000    10.0000    16.0000    20.0000    -0.0005     0.0005   159.4164   -41.1662     3.1387    20.6999    14.7000     2.0000     1.0000   300.0070     0.000
     58     2.0000    -0.2000    -0.0001     5.7502     25.117    134.000 194311.000     30.000    56.6333   -20.0773   -34.6833   120.0962    -0.1480    -3.0001   -40.8317     0.0000     0.0000     0.0000     1.0000   300.0000   300.0000   -54.0403    64.8497    -1.9790    -1.4485    20.0000    20.0000    10.0000    20.0000    26.0000    10.0000    16.0000    20.0000    -0.0005     0.0005   159.4164   -41.1662     3.1387    20.4502    14.7000     2.0000     1.0000   299.9940     0.000
     59     2.0000    -0.2000    -0.0001     5.4998     25.482    152.000 194311.000     30.000    56.9827   -20.0773   -34.9044   120.0962    -0.1480    -3.0001   -40.5656     0.0000     0.0000     0.0000     1.0000   300.0000   300.0000   -54.2048    65.1452    -1.9790    -1.4485    20.0000    20.0000    10.0000    20.0000    26.0000    10.0000    16.0000    20.0000    -0.0005     0.0005   159.4164   -41.1662     3.1387    20.1998    14.7000     2.0000     1.0000   299.9960     0.000
     60     2.0000    -0.2000    -0.0001     5.2501     25.931    160.000 194311.000     30.000    57.3387   -20.0773   -35.1293   120.0962    -0.1480    -3.0001   -40.2982     0.0000     0.0000     0.0000     1.0000   300.0000   300.0000   -54.3691    65.4383    -1.9790    -1.4485    20.0000    20.0000    10.0000    20.0000    26.0000    10.0000    16.0000    20.0000    -0.0005     0.0005   159.4164   -41.1662     3.1387    19.9501    14.7000     2.0000     1.0000   300.0050     0.000
     61     2.0000    -0.2000    -0.0001     5.0000     26.083    182.000 194311.000     30.000    57.7013   -20.0773   -35.3589   120.0962    -0.1480    -3.0001   -40.0292     0.0000     0.0000     0.0000     1.0000   300.0000   300.0000   -54.5326    65.7365    -1.9790    -1.4485    20.0000    20.0000    10.0000    20.0000    26.0000    10.0000    16.0000    20.0000    -0.0005     0.0005   159.4164   -41.1662     3.1387    19.7000    14.7000     2.0000     1.0000   299.9970     0.000
     62     2.0000    -0.2000    -0.0001     4.7502     26.316    182.000 194311.000     30.000    58.0709   -20.0773   -35.5928   120.0962    -0.1480    -3.0001   -39.7588     0.0000     0.0000     0.0000     1.0000   300.0000   300.0000   -54.6966    66.0334    -1.9790    -1.4485    20.0000    20.0000    10.0000    20.0000    26.0000    10.0000    16.0000    20.0000    -0.0005     0.0005   159.4164   -41.1662     3.1387    19.4502    14.7000     2.0000     1.0000   299.9980     0.000
     63     2.0000    -0.2000    -0.0001     4.5000     26.516    168.000 194311.000     30.000    58.4478   -20.0773   -35.8318   120.0962    -0.1480    -3.0001   -39.4868     0.0000     0.0000     0.0000     1.0000   300.0000   300.0000   -54.8601    66.3363    -1.9790    -1.4485    20.0000    20.0000    10.0000    20.0000    26.0000    10.0000    16.0000    20.0000    -0.0005     0.0005   159.4164   -41.1662     3.1387    19.2000    14.7000     2.0000     1.0000   300.0050     0.000
     64     2.0000    -0.2000    -0.0001     4.2500     26.680    190.000 194311.000     30.000    58.8321   -20.0773   -36.0754   120.0962    -0.1480    -3.0001   -39.2133     0.0000     0.0000     0.0000     1.0000   300.0000   300.0000   -55.0237    66.6399    -1.9790    -1.4485    20.0000    20.0000    10.0000    20.0000    26.0000    10.0000    16.0000    20.0000    -0.0005     0.0005   159.4164   -41.1662     3.1388    18.9500    14.7000     2.0000     1.0000   300.0080     0.000
     65     2.0001    -0.2000    -0.0001     3.9999     26.869    179.000 194311.000     30.000    59.2240   -20.0773   -36.3241   120.0962    -0.1480    -3.0001   -38.9382     0.0000     0.0000     0.0000     1.0000   300.0000   300.0000   -55.1865    66.9460    -1.9790    -1.4485    20.0000    20.0000    10.0000    20.0000    26.0000    10.0000    16.0000    20.0000    -0.0005     0.0005   159.4164   -41.1662     3.1388    18.6999    14.7000     2.0000     1.0000   299.9540     0.000
     66     2.0000    -0.2000    -0.0001     3.7501     27.338    157.000 194311.000     30.000    59.6240   -20.0773   -36.5779   120.0962    -0.1480    -3.0001   -38.6614     0.0000     0.0000     0.0000     1.0000   300.0000   300.0000   -55.3496    67.2517    -1.9790    -1.4485    20.0000    20.0000    10.0000    20.0000    26.0000    10.0000    16.0000    20.0000    -0.0005     0.0005   159.4164   -41.1662     3.1387    18.4501    14.7000     2.0000     1.0000   300.0080     0.000
     67     2.0001    -0.2000    -0.0001     3.5000     28.036    121.000 194311.000     30.000    60.0321   -20.0773   -36.8373   120.0962    -0.1480    -3.0001   -38.3830     0.0000     0.0000     0.0000     1.0000   300.0000   300.0000   -55.5123    67.5645    -1.9790    -1.4485    20.0000    20.0000    10.0000    20.0000    26.0000    10.0000    16.0000    20.0000    -0.0005     0.0005   159.4164   -41.1662     3.1388    18.2000    14.7000     2.0000     1.0000   300.0090     0.000
     68     1.9999    -0.2000    -0.0001     3.2499     29.033    124.000 194311.000     30.000    60.4487   -20.0773   -37.1024   120.0962    -0.1480    -3.0001   -38.1029     0.0000     0.0000     0.0000     1.0000   300.0000   300.0000   -55.6748    67.8712    -1.9790    -1.4485    20.0000    20.0000    10.0000    20.0000    26.0000    10.0000    16.0000    20.0000    -0.0005     0.0005   159.4164   -41.1662     3.1386    17.9499    14.7000     2.0000     1.0000   300.0210     0.000
     69     2.0001    -0.2000    -0.0001     3.0004     29.815    104.000 194311.000     30.000    60.8740   -20.0773   -37.3726   120.0962    -0.1480    -3.0001   -37.8211     0.0000     0.0000     0.0000     1.0000   300.0000   300.0000   -55.8365    68.1912    -1.9790    -1.4485    20.0000    20.0000    10.0000    20.0000    26.0000    10.0000    16.0000    20.0000    -0.0005     0.0005   159.4164   -41.1662     3.1388    17.7004    14.7000     2.0000     1.0000   300.0100     0.000
     70     2.0000    -0.2000    -0.0001     2.7498     29.761     84.000 194311.000     30.000    61.3086   -20.0773   -37.6500   120.0962    -0.1480    -3.0001   -37.5375     0.0000     0.0000     0.0000     1.0000   300.0000   300.0000   -55.9986    68.5072    -1.9790    -1.4485    20.0000    20.0000    10.0000    20.0000    26.0000    10.0000    16.0000    20.0000    -0.0005     0.0005   159.4164   -41.1662     3.1387    17.4498    14.7000     2.0000     1.0000   300.0140     0.000
     71     2.0000    -0.2000    -0.0001     2.5000     29.244     84.000 194311.000     30.000    61.7525   -20.0773   -37.9327   120.0962    -0.1480    -3.0001   -37.2522     0.0000     0.0000     0.0000     1.0000   300.0000   300.0000   -56.1598    68.8281    -1.9790    -1.4485    20.0000    20.0000    10.0000    20.0000    26.0000    10.0000    16.0000    20.0000    -0.0005     0.0005   159.4164   -41.1662     3.1388    17.2001    14.7000     2.0000     1.0000   300.0080     0.000
     72     2.0000    -0.2000    -0.0001     2.2498     29.275     70.000 194311.000     30.000    62.2063   -20.0773   -38.2225   120.0962    -0.1480    -3.0001   -36.9649     0.0000     0.0000     0.0000     1.0000   300.0000   300.0000   -56.3210    69.1513    -1.9790    -1.4485    20.0000    20.0000    10.0000    20.0000    26.0000    10.0000    16.0000    20.0000    -0.0005     0.0005   159.4164   -41.1662     3.1388    16.9498    14.7000     2.0000     1.0000   300.0130     0.000
     73     2.0000    -0.2000    -0.0001     2.0000     29.805     59.000 194311.000     30.000    62.6702   -20.0773   -38.5185   120.0962    -0.1480    -3.0001   -36.6758     0.0000     0.0000     0.0000     1.0000   300.0000   300.0000   -56.4817    69.4753    -1.9790    -1.4485    20.0000    20.0000    10.0000    20.0000    26.0000    10.0000    16.0000    20.0000    -0.0005     0.0005   159.4164   -41.1662     3.1387    16.7000    14.7000     2.0000     1.0000   299.9980     0.000
     74     2.0000    -0.2000    -0.0001     1.7499     30.181     82.000 194311.000     30.000    63.1445   -20.0773   -38.8218   120.0962    -0.1480    -3.0001   -36.3848     0.0000     0.0000     0.0000     1.0000   300.0000   300.0000   -56.6420    69.8064    -1.9790    -1.4485    20.0000    20.0000    10.0000    20.0000    26.0000    10.0000    16.0000    20.0000    -0.0005     0.0005   159.4164   -41.1662     3.1388    16.4499    14.7000     2.0000     1.0000   299.9690     0.000
     75     2.0000    -0.2000    -0.0001     1.5001     30.464     81.000 194311.000     30.000    63.6299   -20.0773   -39.1321   120.0962    -0.1480    -3.0001   -36.0918     0.0000     0.0000     0.0000     1.0000   300.0000   300.0000   -56.8020    70.1379    -1.9790    -1.4485    20.0000    20.0000    10.0000    20.0000    26.0000    10.0000    16.0000    20.0000    -0.0005     0.0005   159.4164   -41.1662     3.1387    16.2001    14.7000     2.0000     1.0000   299.9950     0.000
     76     2.0000    -0.2000    -0.0001     1.2500     31.616    110.000 194311.000     30.000    64.1267   -20.0773   -39.4504   120.0962    -0.1480    -3.0001   -35.7968     0.0000     0.0000     0.0000     1.0000   300.0000   300.0000   -56.9615    70.4714    -1.9790    -1.4485    20.0000    20.0000    10.0000    20.0000    26.0000    10.0000    16.0000    20.0000    -0.0005     0.0005   159.4164   -41.1662     3.1387    15.9500    14.7000     2.0000     1.0000   300.0000     0.000
     77     2.0000    -0.2000    -0.0001     1.0000     33.096    155.000 194311.000     30.000    64.6352   -20.0773   -39.7763   120.0962    -0.1480    -3.0001   -35.4997     0.0000     0.0000     0.0000     1.0000   300.0000   300.0000   -57.1206    70.8133    -1.9790    -1.4485    20.0000    20.0000    10.0000    20.0000    26.0000    10.0000    16.0000    20.0000    -0.0005     0.0005   159.4164   -41.1662     3.1388    15.7000    14.7000     2.0000     1.0000   300.0120     0.000
     78     2.0000    -0.2000    -0.0001     0.7500     33.688    303.000 194311.000     30.000    65.1560   -20.0773   -40.1105   120.0962    -0.1480    -3.0001   -35.2005     0.0000     0.0000     0.0000     1.0000   300.0000   300.0000   -57.2791    71.1544    -1.9790    -1.4485    20.0000    20.0000    10.0000    20.0000    26.0000    10.0000    16.0000    20.0000    -0.0005     0.0005   159.4164   -41.1662     3.1387    15.4500    14.7000     2.0000     1.0000   300.0130     0.000
     79     2.0000    -0.2000    -0.0001     0.5001     33.009    598.000 194311.000     30.000    65.6897   -20.0773   -40.4532   120.0962    -0.1480    -3.0001   -34.8991     0.0000     0.0000     0.0000     1.0000   300.0000   300.0000   -57.4366    71.4993    -1.9790    -1.4485    20.0000    20.0000    10.0000    20.0000    26.0000    10.0000    16.0000    20.0000    -0.0005     0.0005   159.4164   -41.1662     3.1387    15.2001    14.7000     2.0000     1.0000   300.0130     0.000
# Sum of Counts = 6912
# Center of Mass = 7.452327+/-0.142698
# Full Width Half-Maximum = 10.894422+/-0.123118
# 7:32:44 AM  9/9/2024   scan completed.
