# scan = 205
# date = 9/9/2024
# time = 7:32:45 AM
# proposal = 32905
# experiment = Effects of electric field on phonon dispersion and lifetimes of poled PMN-30PT
# experiment_number = 812
# command = scan h 2 k -0.25 l 0 e 20 0.5 0.25 preset mcu 30
# builtin_command = scan h 2 k -0.25 l 0 e 20 0.5 0.25 preset mcu 30
# users = George Yumnam, Michael Manley, Puspa Upreti, Raphael Hermann, SHAOFEI WANG
# local_contact = Songxue Chi
# scan_title = (2,-0.25,0) G to X transverse mode scan at 0V ramping down
# monochromator = PG002
# analyzer = Pg002
# sense = -+-
# collimation = 48-40-40-120
# samplename = PMN-30PT
# sampletype = crystal
# samplemosaic = 30.000000
# latticeconstants = 4.023634,4.023634,4.023634,90.000000,90.000000,90.000000
# ubmatrix = -0.008055,-0.248252,-0.008588,-0.248328,0.007840,0.006285,-0.006007,0.008785,-0.248304
# mode = 0
# plane_normal = 0.034555,-0.025290,0.999083
# ubconf = UB04Sep2024_115522AM.ini
# preset_type = normal 
# preset_channel = mcu
# preset_value = 30.000000
# def_x = e
# def_y = detector
# col_headers = 
#   Pt.          h          k          l          e       time   detector    monitor        mcu focal_length         m1         m2   mcrystal       marc     mtrans     mfocus       ampl         dc       freq     output       temp     temp_2         s1         s2        sgl        sgu        bbb        bbl        bbr        bbt        bab        bal        bar        bat        stl        stu         a1         a2          q         ei         ef   ampl_out output_state        vti     sample
      1     2.0000    -0.2501    -0.0001    20.0029     25.051     40.000 194311.000     30.000    43.4765   -20.0773   -26.4545   120.0962    -0.1480    -3.0001   -54.2224     0.0000     0.0000     0.0000     1.0000   300.0000   300.0000   -45.8680    50.2641    -1.9790    -1.4485    20.0000    20.0000    10.0000    20.0000    26.0000    10.0000    16.0000    20.0000    -0.0005     0.0005   159.4164   -41.1662     3.1474    34.7030    14.7000     2.0000     1.0000   300.0500     0.000
      2     2.0000    -0.2500    -0.0001    19.7497     25.043     41.000 194311.000     30.000    43.6339   -20.0773   -26.5533   120.0962    -0.1480    -3.0001   -54.0105     0.0000     0.0000     0.0000     1.0000   300.0000   300.0000   -46.0393    50.5103    -1.9790    -1.4485    20.0000    20.0000    10.0000    20.0000    26.0000    10.0000    16.0000    20.0000    -0.0005     0.0005   159.4164   -41.1662     3.1475    34.4497    14.7000     2.0000     1.0000   299.9730     0.000
      3     2.0000    -0.2500    -0.0001    19.4998     24.932     35.000 194311.000     30.000    43.7931   -20.0773   -26.6519   120.0962    -0.1480    -3.0001   -53.7978     0.0000     0.0000     0.0000     1.0000   300.0000   300.0000   -46.2109    50.7519    -1.9790    -1.4485    20.0000    20.0000    10.0000    20.0000    26.0000    10.0000    16.0000    20.0000    -0.0005     0.0005   159.4164   -41.1662     3.1475    34.1998    14.7000     2.0000     1.0000   300.0390     0.000
      4     2.0001    -0.2500    -0.0001    19.2501     25.066     31.000 194311.000     30.000    43.9541   -20.0773   -26.7516   120.0962    -0.1480    -3.0001   -53.5845     0.0000     0.0000     0.0000     1.0000   300.0000   300.0000   -46.3816    50.9936    -1.9790    -1.4485    20.0000    20.0000    10.0000    20.0000    26.0000    10.0000    16.0000    20.0000    -0.0005     0.0005   159.4164   -41.1662     3.1475    33.9501    14.7000     2.0000     1.0000   300.0090     0.000
      5     2.0000    -0.2500    -0.0001    19.0004     25.198     38.000 194311.000     30.000    44.1168   -20.0773   -26.8523   120.0962    -0.1480    -3.0001   -53.3706     0.0000     0.0000     0.0000     1.0000   300.0000   300.0000   -46.5524    51.2349    -1.9790    -1.4485    20.0000    20.0000    10.0000    20.0000    26.0000    10.0000    16.0000    20.0000    -0.0005     0.0005   159.4164   -41.1662     3.1475    33.7005    14.7000     2.0000     1.0000   299.9960     0.000
      6     2.0000    -0.2500    -0.0001    18.7494     25.473     43.000 194311.000     30.000    44.2813   -20.0773   -26.9548   120.0962    -0.1480    -3.0001   -53.1560     0.0000     0.0000     0.0000     1.0000   300.0000   300.0000   -46.7230    51.4775    -1.9790    -1.4485    20.0000    20.0000    10.0000    20.0000    26.0000    10.0000    16.0000    20.0000    -0.0005     0.0005   159.4164   -41.1662     3.1475    33.4494    14.7000     2.0000     1.0000   299.9890     0.000
      7     2.0000    -0.2500    -0.0001    18.5001     25.591     35.000 194311.000     30.000    44.4478   -20.0773   -27.0577   120.0962    -0.1480    -3.0001   -52.9407     0.0000     0.0000     0.0000     1.0000   300.0000   300.0000   -46.8936    51.7196    -1.9790    -1.4485    20.0000    20.0000    10.0000    20.0000    26.0000    10.0000    16.0000    20.0000    -0.0005     0.0005   159.4164   -41.1662     3.1475    33.2001    14.7000     2.0000     1.0000   299.9890     0.000
      8     2.0001    -0.2500    -0.0001    18.2502     25.935     25.000 194311.000     30.000    44.6161   -20.0773   -27.1621   120.0962    -0.1480    -3.0001   -52.7248     0.0000     0.0000     0.0000     1.0000   300.0000   300.0000   -47.0635    51.9641    -1.9790    -1.4485    20.0000    20.0000    10.0000    20.0000    26.0000    10.0000    16.0000    20.0000    -0.0005     0.0005   159.4164   -41.1662     3.1476    32.9502    14.7000     2.0000     1.0000   299.9930     0.000
      9     2.0000    -0.2500    -0.0001    17.9998     26.002     37.000 194311.000     30.000    44.7863   -20.0773   -27.2679   120.0962    -0.1480    -3.0001   -52.5081     0.0000     0.0000     0.0000     1.0000   300.0000   300.0000   -47.2336    52.2064    -1.9790    -1.4485    20.0000    20.0000    10.0000    20.0000    26.0000    10.0000    16.0000    20.0000    -0.0005     0.0005   159.4164   -41.1662     3.1475    32.6998    14.7000     2.0000     1.0000   299.9980     0.000
     10     2.0000    -0.2500    -0.0001    17.7505     26.138     42.000 194311.000     30.000    44.9585   -20.0773   -27.3745   120.0962    -0.1480    -3.0001   -52.2908     0.0000     0.0000     0.0000     1.0000   300.0000   300.0000   -47.4029    52.4489    -1.9790    -1.4485    20.0000    20.0000    10.0000    20.0000    26.0000    10.0000    16.0000    20.0000    -0.0005     0.0005   159.4164   -41.1662     3.1475    32.4505    14.7000     2.0000     1.0000   299.9810     0.000
     11     2.0000    -0.2500    -0.0001    17.4997     26.231     37.000 194311.000     30.000    45.1326   -20.0773   -27.4829   120.0962    -0.1480    -3.0001   -52.0728     0.0000     0.0000     0.0000     1.0000   300.0000   300.0000   -47.5729    52.6928    -1.9790    -1.4485    20.0000    20.0000    10.0000    20.0000    26.0000    10.0000    16.0000    20.0000    -0.0005     0.0005   159.4164   -41.1662     3.1474    32.1997    14.7000     2.0000     1.0000   299.9810     0.000
     12     2.0000    -0.2500    -0.0001    17.2499     26.269     40.000 194311.000     30.000    45.3089   -20.0773   -27.5923   120.0962    -0.1480    -3.0001   -51.8540     0.0000     0.0000     0.0000     1.0000   300.0000   300.0000   -47.7421    52.9385    -1.9790    -1.4485    20.0000    20.0000    10.0000    20.0000    26.0000    10.0000    16.0000    20.0000    -0.0005     0.0005   159.4164   -41.1662     3.1475    31.9499    14.7000     2.0000     1.0000   300.0120     0.000
     13     2.0001    -0.2500    -0.0001    17.0001     26.490     39.000 194311.000     30.000    45.4872   -20.0773   -27.7029   120.0962    -0.1480    -3.0001   -51.6345     0.0000     0.0000     0.0000     1.0000   300.0000   300.0000   -47.9116    53.1849    -1.9790    -1.4485    20.0000    20.0000    10.0000    20.0000    26.0000    10.0000    16.0000    20.0000    -0.0005     0.0005   159.4164   -41.1662     3.1476    31.7001    14.7000     2.0000     1.0000   300.0100     0.000
     14     2.0000    -0.2500    -0.0001    16.7497     26.490     46.000 194311.000     30.000    45.6676   -20.0773   -27.8152   120.0962    -0.1480    -3.0001   -51.4143     0.0000     0.0000     0.0000     1.0000   300.0000   300.0000   -48.0805    53.4288    -1.9790    -1.4485    20.0000    20.0000    10.0000    20.0000    26.0000    10.0000    16.0000    20.0000    -0.0005     0.0005   159.4164   -41.1662     3.1475    31.4497    14.7000     2.0000     1.0000   300.0200     0.000
     15     2.0000    -0.2500    -0.0001    16.5002     26.525     57.000 194311.000     30.000    45.8503   -20.0773   -27.9285   120.0962    -0.1480    -3.0001   -51.1934     0.0000     0.0000     0.0000     1.0000   300.0000   300.0000   -48.2493    53.6735    -1.9790    -1.4485    20.0000    20.0000    10.0000    20.0000    26.0000    10.0000    16.0000    20.0000    -0.0005     0.0005   159.4164   -41.1662     3.1474    31.2002    14.7000     2.0000     1.0000   299.9680     0.000
     16     2.0000    -0.2500    -0.0001    16.2498     26.672     52.000 194311.000     30.000    46.0351   -20.0773   -28.0435   120.0962    -0.1480    -3.0001   -50.9717     0.0000     0.0000     0.0000     1.0000   300.0000   300.0000   -48.4181    53.9216    -1.9790    -1.4485    20.0000    20.0000    10.0000    20.0000    26.0000    10.0000    16.0000    20.0000    -0.0005     0.0005   159.4164   -41.1662     3.1475    30.9498    14.7000     2.0000     1.0000   300.0120     0.000
     17     2.0001    -0.2500    -0.0001    15.9997     26.670     41.000 194311.000     30.000    46.2221   -20.0773   -28.1599   120.0962    -0.1480    -3.0001   -50.7492     0.0000     0.0000     0.0000     1.0000   300.0000   300.0000   -48.5866    54.1712    -1.9790    -1.4485    20.0000    20.0000    10.0000    20.0000    26.0000    10.0000    16.0000    20.0000    -0.0005     0.0005   159.4164   -41.1662     3.1476    30.6997    14.7000     2.0000     1.0000   300.0020     0.000
     18     2.0000    -0.2500    -0.0001    15.7505     26.765     70.000 194311.000     30.000    46.4115   -20.0773   -28.2773   120.0962    -0.1480    -3.0001   -50.5260     0.0000     0.0000     0.0000     1.0000   300.0000   300.0000   -48.7551    54.4161    -1.9790    -1.4485    20.0000    20.0000    10.0000    20.0000    26.0000    10.0000    16.0000    20.0000    -0.0005     0.0005   159.4164   -41.1662     3.1475    30.4505    14.7000     2.0000     1.0000   300.0180     0.000
     19     2.0000    -0.2500    -0.0001    15.4998     26.974     83.000 194311.000     30.000    46.6032   -20.0773   -28.3968   120.0962    -0.1480    -3.0001   -50.3021     0.0000     0.0000     0.0000     1.0000   300.0000   300.0000   -48.9230    54.6635    -1.9790    -1.4485    20.0000    20.0000    10.0000    20.0000    26.0000    10.0000    16.0000    20.0000    -0.0005     0.0005   159.4164   -41.1662     3.1474    30.1998    14.7000     2.0000     1.0000   300.0260     0.000
     20     2.0000    -0.2500    -0.0001    15.2499     27.122     72.000 194311.000     30.000    46.7972   -20.0773   -28.5176   120.0962    -0.1480    -3.0001   -50.0773     0.0000     0.0000     0.0000     1.0000   300.0000   300.0000   -49.0914    54.9137    -1.9790    -1.4485    20.0000    20.0000    10.0000    20.0000    26.0000    10.0000    16.0000    20.0000    -0.0005     0.0005   159.4164   -41.1662     3.1475    29.9499    14.7000     2.0000     1.0000   300.0150     0.000
     21     2.0001    -0.2500    -0.0001    15.0003     27.028     92.000 194311.000     30.000    46.9938   -20.0773   -28.6397   120.0962    -0.1480    -3.0001   -49.8518     0.0000     0.0000     0.0000     1.0000   300.0000   300.0000   -49.2593    55.1633    -1.9790    -1.4485    20.0000    20.0000    10.0000    20.0000    26.0000    10.0000    16.0000    20.0000    -0.0005     0.0005   159.4164   -41.1662     3.1475    29.7003    14.7000     2.0000     1.0000   299.9790     0.000
     22     2.0001    -0.2500    -0.0001    14.7496     27.024     85.000 194311.000     30.000    47.1929   -20.0773   -28.7640   120.0962    -0.1480    -3.0001   -49.6254     0.0000     0.0000     0.0000     1.0000   300.0000   300.0000   -49.4267    55.4147    -1.9790    -1.4485    20.0000    20.0000    10.0000    20.0000    26.0000    10.0000    16.0000    20.0000    -0.0005     0.0005   159.4164   -41.1662     3.1476    29.4496    14.7000     2.0000     1.0000   300.0090     0.000
     23     2.0000    -0.2500    -0.0001    14.5000     26.721     87.000 194311.000     30.000    47.3944   -20.0773   -28.8893   120.0962    -0.1480    -3.0001   -49.3982     0.0000     0.0000     0.0000     1.0000   300.0000   300.0000   -49.5946    55.6633    -1.9790    -1.4485    20.0000    20.0000    10.0000    20.0000    26.0000    10.0000    16.0000    20.0000    -0.0005     0.0005   159.4164   -41.1662     3.1475    29.2000    14.7000     2.0000     1.0000   299.9890     0.000
     24     2.0000    -0.2500    -0.0001    14.2506     26.359     84.000 194311.000     30.000    47.5986   -20.0773   -29.0162   120.0962    -0.1480    -3.0001   -49.1702     0.0000     0.0000     0.0000     1.0000   300.0000   300.0000   -49.7620    55.9147    -1.9790    -1.4485    20.0000    20.0000    10.0000    20.0000    26.0000    10.0000    16.0000    20.0000    -0.0005     0.0005   159.4164   -41.1662     3.1475    28.9506    14.7000     2.0000     1.0000   300.0120     0.000
     25     2.0001    -0.2500    -0.0001    13.9994     25.881    114.000 194311.000     30.000    47.8055   -20.0773   -29.1456   120.0962    -0.1480    -3.0001   -48.9414     0.0000     0.0000     0.0000     1.0000   300.0000   300.0000   -49.9293    56.1704    -1.9790    -1.4485    20.0000    20.0000    10.0000    20.0000    26.0000    10.0000    16.0000    20.0000    -0.0005     0.0005   159.4164   -41.1662     3.1476    28.6995    14.7000     2.0000     1.0000   300.0090     0.000
     26     2.0001    -0.2500    -0.0001    13.7503     25.492     96.000 194311.000     30.000    48.0151   -20.0773   -29.2758   120.0962    -0.1480    -3.0001   -48.7117     0.0000     0.0000     0.0000     1.0000   300.0000   300.0000   -50.0968    56.4216    -1.9790    -1.4485    20.0000    20.0000    10.0000    20.0000    26.0000    10.0000    16.0000    20.0000    -0.0005     0.0005   159.4164   -41.1662     3.1476    28.4503    14.7000     2.0000     1.0000   299.9700     0.000
     27     2.0000    -0.2500    -0.0001    13.5003     25.310     94.000 194311.000     30.000    48.2274   -20.0773   -29.4082   120.0962    -0.1480    -3.0001   -48.4811     0.0000     0.0000     0.0000     1.0000   300.0000   300.0000   -50.2638    56.6716    -1.9790    -1.4485    20.0000    20.0000    10.0000    20.0000    26.0000    10.0000    16.0000    20.0000    -0.0005     0.0005   159.4164   -41.1662     3.1474    28.2003    14.7000     2.0000     1.0000   300.0070     0.000
     28     2.0000    -0.2500    -0.0001    13.2496     25.293     82.000 194311.000     30.000    48.4427   -20.0773   -29.5428   120.0962    -0.1480    -3.0001   -48.2497     0.0000     0.0000     0.0000     1.0000   300.0000   300.0000   -50.4305    56.9287    -1.9790    -1.4485    20.0000    20.0000    10.0000    20.0000    26.0000    10.0000    16.0000    20.0000    -0.0005     0.0005   159.4164   -41.1662     3.1475    27.9496    14.7000     2.0000     1.0000   299.9990     0.000
     29     2.0001    -0.2500    -0.0001    13.0000     25.581     70.000 194311.000     30.000    48.6608   -20.0773   -29.6786   120.0962    -0.1480    -3.0001   -48.0174     0.0000     0.0000     0.0000     1.0000   300.0000   300.0000   -50.5973    57.1855    -1.9790    -1.4485    20.0000    20.0000    10.0000    20.0000    26.0000    10.0000    16.0000    20.0000    -0.0005     0.0005   159.4164   -41.1662     3.1476    27.7000    14.7000     2.0000     1.0000   299.9990     0.000
     30     2.0000    -0.2500    -0.0001    12.7500     25.959     62.000 194311.000     30.000    48.8819   -20.0773   -29.8166   120.0962    -0.1480    -3.0001   -47.7842     0.0000     0.0000     0.0000     1.0000   300.0000   300.0000   -50.7643    57.4395    -1.9790    -1.4485    20.0000    20.0000    10.0000    20.0000    26.0000    10.0000    16.0000    20.0000    -0.0005     0.0005   159.4164   -41.1662     3.1475    27.4500    14.7000     2.0000     1.0000   300.0250     0.000
     31     2.0000    -0.2500    -0.0001    12.4999     26.215     51.000 194311.000     30.000    49.1060   -20.0773   -29.9566   120.0962    -0.1480    -3.0001   -47.5501     0.0000     0.0000     0.0000     1.0000   300.0000   300.0000   -50.9306    57.6952    -1.9790    -1.4485    20.0000    20.0000    10.0000    20.0000    26.0000    10.0000    16.0000    20.0000    -0.0005     0.0005   159.4164   -41.1662     3.1474    27.1999    14.7000     2.0000     1.0000   299.9690     0.000
     32     2.0000    -0.2500    -0.0001    12.2503     26.632     58.000 194311.000     30.000    49.3332   -20.0773   -30.0982   120.0962    -0.1480    -3.0001   -47.3151     0.0000     0.0000     0.0000     1.0000   300.0000   300.0000   -51.0969    57.9538    -1.9790    -1.4485    20.0000    20.0000    10.0000    20.0000    26.0000    10.0000    16.0000    20.0000    -0.0005     0.0005   159.4164   -41.1662     3.1475    26.9504    14.7000     2.0000     1.0000   300.0090     0.000
     33     2.0000    -0.2500    -0.0001    11.9998     26.770     52.000 194311.000     30.000    49.5636   -20.0773   -30.2425   120.0962    -0.1480    -3.0001   -47.0791     0.0000     0.0000     0.0000     1.0000   300.0000   300.0000   -51.2635    58.2119    -1.9790    -1.4485    20.0000    20.0000    10.0000    20.0000    26.0000    10.0000    16.0000    20.0000    -0.0005     0.0005   159.4164   -41.1662     3.1475    26.6998    14.7000     2.0000     1.0000   299.9970     0.000
     34     2.0000    -0.2500    -0.0001    11.7500     26.985     50.000 194311.000     30.000    49.7973   -20.0773   -30.3884   120.0962    -0.1480    -3.0001   -46.8422     0.0000     0.0000     0.0000     1.0000   300.0000   300.0000   -51.4293    58.4714    -1.9790    -1.4485    20.0000    20.0000    10.0000    20.0000    26.0000    10.0000    16.0000    20.0000    -0.0005     0.0005   159.4164   -41.1662     3.1475    26.4500    14.7000     2.0000     1.0000   299.9900     0.000
     35     2.0000    -0.2500    -0.0001    11.5001     26.672     49.000 194311.000     30.000    50.0343   -20.0773   -30.5364   120.0962    -0.1480    -3.0001   -46.6044     0.0000     0.0000     0.0000     1.0000   300.0000   300.0000   -51.5958    58.7324    -1.9790    -1.4485    20.0000    20.0000    10.0000    20.0000    26.0000    10.0000    16.0000    20.0000    -0.0005     0.0005   159.4164   -41.1662     3.1475    26.2001    14.7000     2.0000     1.0000   300.0240     0.000
     36     2.0001    -0.2500    -0.0001    11.2501     26.654     42.000 194311.000     30.000    50.2748   -20.0773   -30.6868   120.0962    -0.1480    -3.0001   -46.3655     0.0000     0.0000     0.0000     1.0000   300.0000   300.0000   -51.7615    58.9964    -1.9790    -1.4485    20.0000    20.0000    10.0000    20.0000    26.0000    10.0000    16.0000    20.0000    -0.0005     0.0005   159.4164   -41.1662     3.1476    25.9501    14.7000     2.0000     1.0000   300.0040     0.000
     37     2.0000    -0.2500    -0.0001    11.0000     26.379     44.000 194311.000     30.000    50.5187   -20.0773   -30.8395   120.0962    -0.1480    -3.0001   -46.1257     0.0000     0.0000     0.0000     1.0000   300.0000   300.0000   -51.9271    59.2556    -1.9790    -1.4485    20.0000    20.0000    10.0000    20.0000    26.0000    10.0000    16.0000    20.0000    -0.0005     0.0005   159.4164   -41.1662     3.1475    25.7000    14.7000     2.0000     1.0000   300.0150     0.000
     38     2.0000    -0.2500    -0.0001    10.7502     26.123     39.000 194311.000     30.000    50.7662   -20.0773   -30.9942   120.0962    -0.1480    -3.0001   -45.8849     0.0000     0.0000     0.0000     1.0000   300.0000   300.0000   -52.0932    59.5198    -1.9790    -1.4485    20.0000    20.0000    10.0000    20.0000    26.0000    10.0000    16.0000    20.0000    -0.0005     0.0005   159.4164   -41.1662     3.1475    25.4502    14.7000     2.0000     1.0000   299.9750     0.000
     39     2.0001    -0.2500    -0.0001    10.5003     26.073     48.000 194311.000     30.000    51.0174   -20.0773   -31.1514   120.0962    -0.1480    -3.0001   -45.6430     0.0000     0.0000     0.0000     1.0000   300.0000   300.0000   -52.2587    59.7861    -1.9790    -1.4485    20.0000    20.0000    10.0000    20.0000    26.0000    10.0000    16.0000    20.0000    -0.0005     0.0005   159.4164   -41.1662     3.1476    25.2003    14.7000     2.0000     1.0000   300.0030     0.000
     40     2.0000    -0.2500    -0.0001    10.2503     26.226     49.000 194311.000     30.000    51.2724   -20.0773   -31.3111   120.0962    -0.1480    -3.0001   -45.4002     0.0000     0.0000     0.0000     1.0000   300.0000   300.0000   -52.4241    60.0477    -1.9790    -1.4485    20.0000    20.0000    10.0000    20.0000    26.0000    10.0000    16.0000    20.0000    -0.0005     0.0005   159.4164   -41.1662     3.1474    24.9503    14.7000     2.0000     1.0000   300.0110     0.000
     41     2.0000    -0.2500    -0.0001     9.9999     26.488     44.000 194311.000     30.000    51.5312   -20.0773   -31.4734   120.0962    -0.1480    -3.0001   -45.1562     0.0000     0.0000     0.0000     1.0000   300.0000   300.0000   -52.5892    60.3168    -1.9790    -1.4485    20.0000    20.0000    10.0000    20.0000    26.0000    10.0000    16.0000    20.0000    -0.0005     0.0005   159.4164   -41.1662     3.1475    24.6999    14.7000     2.0000     1.0000   300.0240     0.000
     42     2.0001    -0.2500    -0.0001     9.7497     26.739     37.000 194311.000     30.000    51.7940   -20.0773   -31.6383   120.0962    -0.1480    -3.0001   -44.9112     0.0000     0.0000     0.0000     1.0000   300.0000   300.0000   -52.7546    60.5873    -1.9790    -1.4485    20.0000    20.0000    10.0000    20.0000    26.0000    10.0000    16.0000    20.0000    -0.0005     0.0005   159.4164   -41.1662     3.1476    24.4497    14.7000     2.0000     1.0000   300.0190     0.000
     43     2.0000    -0.2500    -0.0001     9.4997     27.197     45.000 194311.000     30.000    52.0609   -20.0773   -31.8056   120.0962    -0.1480    -3.0001   -44.6652     0.0000     0.0000     0.0000     1.0000   300.0000   300.0000   -52.9196    60.8531    -1.9790    -1.4485    20.0000    20.0000    10.0000    20.0000    26.0000    10.0000    16.0000    20.0000    -0.0005     0.0005   159.4164   -41.1662     3.1474    24.1997    14.7000     2.0000     1.0000   300.0100     0.000
     44     2.0000    -0.2500    -0.0001     9.2503     27.389     28.000 194311.000     30.000    52.3319   -20.0773   -31.9752   120.0962    -0.1480    -3.0001   -44.4180     0.0000     0.0000     0.0000     1.0000   300.0000   300.0000   -53.0846    61.1245    -1.9790    -1.4485    20.0000    20.0000    10.0000    20.0000    26.0000    10.0000    16.0000    20.0000    -0.0005     0.0005   159.4164   -41.1662     3.1475    23.9503    14.7000     2.0000     1.0000   300.0130     0.000
     45     2.0001    -0.2500    -0.0001     8.9999     27.285     40.000 194311.000     30.000    52.6071   -20.0773   -32.1482   120.0962    -0.1480    -3.0001   -44.1697     0.0000     0.0000     0.0000     1.0000   300.0000   300.0000   -53.2496    61.3981    -1.9790    -1.4485    20.0000    20.0000    10.0000    20.0000    26.0000    10.0000    16.0000    20.0000    -0.0005     0.0005   159.4164   -41.1662     3.1476    23.6999    14.7000     2.0000     1.0000   300.0050     0.000
     46     2.0000    -0.2500    -0.0001     8.7502     26.748     47.000 194311.000     30.000    52.8868   -20.0773   -32.3236   120.0962    -0.1480    -3.0001   -43.9203     0.0000     0.0000     0.0000     1.0000   300.0000   300.0000   -53.4145    61.6674    -1.9790    -1.4485    20.0000    20.0000    10.0000    20.0000    26.0000    10.0000    16.0000    20.0000    -0.0005     0.0005   159.4164   -41.1662     3.1474    23.4502    14.7000     2.0000     1.0000   300.0040     0.000
     47     2.0000    -0.2500    -0.0001     8.5001     26.039     46.000 194311.000     30.000    53.1710   -20.0773   -32.5021   120.0962    -0.1480    -3.0001   -43.6697     0.0000     0.0000     0.0000     1.0000   300.0000   300.0000   -53.5791    61.9428    -1.9790    -1.4485    20.0000    20.0000    10.0000    20.0000    26.0000    10.0000    16.0000    20.0000    -0.0005     0.0005   159.4164   -41.1662     3.1475    23.2001    14.7000     2.0000     1.0000   300.0160     0.000
     48     2.0000    -0.2500    -0.0001     8.2499     25.108     39.000 194311.000     30.000    53.4598   -20.0773   -32.6837   120.0962    -0.1480    -3.0001   -43.4180     0.0000     0.0000     0.0000     1.0000   300.0000   300.0000   -53.7431    62.2192    -1.9790    -1.4485    20.0000    20.0000    10.0000    20.0000    26.0000    10.0000    16.0000    20.0000    -0.0005     0.0005   159.4164   -41.1662     3.1475    22.9499    14.7000     2.0000     1.0000   300.0080     0.000
     49     2.0000    -0.2500    -0.0001     8.0000     24.375     39.000 194311.000     30.000    53.7534   -20.0773   -32.8682   120.0962    -0.1480    -3.0001   -43.1651     0.0000     0.0000     0.0000     1.0000   300.0000   300.0000   -53.9076    62.4948    -1.9790    -1.4485    20.0000    20.0000    10.0000    20.0000    26.0000    10.0000    16.0000    20.0000    -0.0005     0.0005   159.4164   -41.1662     3.1474    22.7000    14.7000     2.0000     1.0000   300.0010     0.000
     50     2.0000    -0.2500    -0.0001     7.7499     23.996     50.000 194311.000     30.000    54.0519   -20.0773   -33.0560   120.0962    -0.1480    -3.0001   -42.9109     0.0000     0.0000     0.0000     1.0000   300.0000   300.0000   -54.0720    62.7743    -1.9790    -1.4485    20.0000    20.0000    10.0000    20.0000    26.0000    10.0000    16.0000    20.0000    -0.0005     0.0005   159.4164   -41.1662     3.1475    22.4499    14.7000     2.0000     1.0000   299.9800     0.000
     51     2.0000    -0.2500    -0.0001     7.5000     23.829     48.000 194311.000     30.000    54.3554   -20.0773   -33.2469   120.0962    -0.1480    -3.0001   -42.6556     0.0000     0.0000     0.0000     1.0000   300.0000   300.0000   -54.2361    63.0515    -1.9790    -1.4485    20.0000    20.0000    10.0000    20.0000    26.0000    10.0000    16.0000    20.0000    -0.0005     0.0005   159.4164   -41.1662     3.1474    22.2000    14.7000     2.0000     1.0000   300.0110     0.000
     52     2.0000    -0.2500    -0.0001     7.2503     23.822     66.000 194311.000     30.000    54.6640   -20.0773   -33.4411   120.0962    -0.1480    -3.0001   -42.3989     0.0000     0.0000     0.0000     1.0000   300.0000   300.0000   -54.3998    63.3355    -1.9790    -1.4485    20.0000    20.0000    10.0000    20.0000    26.0000    10.0000    16.0000    20.0000    -0.0005     0.0005   159.4164   -41.1662     3.1475    21.9503    14.7000     2.0000     1.0000   299.9910     0.000
     53     2.0000    -0.2500    -0.0001     6.9996     23.856     74.000 194311.000     30.000    54.9780   -20.0773   -33.6393   120.0962    -0.1480    -3.0001   -42.1410     0.0000     0.0000     0.0000     1.0000   300.0000   300.0000   -54.5641    63.6178    -1.9790    -1.4485    20.0000    20.0000    10.0000    20.0000    26.0000    10.0000    16.0000    20.0000    -0.0005     0.0005   159.4164   -41.1662     3.1474    21.6996    14.7000     2.0000     1.0000   300.0020     0.000
     54     2.0000    -0.2500    -0.0001     6.7503     23.936     69.000 194311.000     30.000    55.2975   -20.0773   -33.8402   120.0962    -0.1480    -3.0001   -41.8818     0.0000     0.0000     0.0000     1.0000   300.0000   300.0000   -54.7271    63.9033    -1.9790    -1.4485    20.0000    20.0000    10.0000    20.0000    26.0000    10.0000    16.0000    20.0000    -0.0005     0.0005   159.4164   -41.1662     3.1475    21.4503    14.7000     2.0000     1.0000   300.0200     0.000
     55     2.0001    -0.2500    -0.0001     6.4999     24.114     84.000 194311.000     30.000    55.6225   -20.0773   -34.0455   120.0962    -0.1480    -3.0001   -41.6214     0.0000     0.0000     0.0000     1.0000   300.0000   300.0000   -54.8909    64.1918    -1.9790    -1.4485    20.0000    20.0000    10.0000    20.0000    26.0000    10.0000    16.0000    20.0000    -0.0005     0.0005   159.4164   -41.1662     3.1476    21.1999    14.7000     2.0000     1.0000   299.9990     0.000
     56     2.0000    -0.2500    -0.0001     6.2501     24.414     84.000 194311.000     30.000    55.9535   -20.0773   -34.2541   120.0962    -0.1480    -3.0001   -41.3595     0.0000     0.0000     0.0000     1.0000   300.0000   300.0000   -55.0544    64.4763    -1.9790    -1.4485    20.0000    20.0000    10.0000    20.0000    26.0000    10.0000    16.0000    20.0000    -0.0005     0.0005   159.4164   -41.1662     3.1474    20.9501    14.7000     2.0000     1.0000   300.0070     0.000
     57     2.0000    -0.2500    -0.0001     5.9999     24.774     99.000 194311.000     30.000    56.2903   -20.0773   -34.4668   120.0962    -0.1480    -3.0001   -41.0963     0.0000     0.0000     0.0000     1.0000   300.0000   300.0000   -55.2171    64.7678    -1.9790    -1.4485    20.0000    20.0000    10.0000    20.0000    26.0000    10.0000    16.0000    20.0000    -0.0005     0.0005   159.4164   -41.1662     3.1475    20.6999    14.7000     2.0000     1.0000   299.9980     0.000
     58     2.0000    -0.2500    -0.0001     5.7501     25.213     96.000 194311.000     30.000    56.6333   -20.0773   -34.6834   120.0962    -0.1480    -3.0001   -40.8317     0.0000     0.0000     0.0000     1.0000   300.0000   300.0000   -55.3801    65.0576    -1.9790    -1.4485    20.0000    20.0000    10.0000    20.0000    26.0000    10.0000    16.0000    20.0000    -0.0005     0.0005   159.4164   -41.1662     3.1474    20.4501    14.7000     2.0000     1.0000   299.9980     0.000
     59     2.0000    -0.2500    -0.0001     5.4998     25.553    125.000 194311.000     30.000    56.9827   -20.0773   -34.9044   120.0962    -0.1480    -3.0001   -40.5656     0.0000     0.0000     0.0000     1.0000   300.0000   300.0000   -55.5431    65.3531    -1.9790    -1.4485    20.0000    20.0000    10.0000    20.0000    26.0000    10.0000    16.0000    20.0000    -0.0005     0.0005   159.4164   -41.1662     3.1475    20.1998    14.7000     2.0000     1.0000   299.9970     0.000
     60     2.0000    -0.2500    -0.0001     5.2501     25.793    129.000 194311.000     30.000    57.3387   -20.0773   -35.1293   120.0962    -0.1480    -3.0001   -40.2982     0.0000     0.0000     0.0000     1.0000   300.0000   300.0000   -55.7056    65.6470    -1.9790    -1.4485    20.0000    20.0000    10.0000    20.0000    26.0000    10.0000    16.0000    20.0000    -0.0005     0.0005   159.4164   -41.1662     3.1474    19.9501    14.7000     2.0000     1.0000   299.9950     0.000
     61     2.0000    -0.2500    -0.0001     5.0000     26.184    111.000 194311.000     30.000    57.7013   -20.0773   -35.3589   120.0962    -0.1480    -3.0001   -40.0292     0.0000     0.0000     0.0000     1.0000   300.0000   300.0000   -55.8680    65.9464    -1.9790    -1.4485    20.0000    20.0000    10.0000    20.0000    26.0000    10.0000    16.0000    20.0000    -0.0005     0.0005   159.4164   -41.1662     3.1475    19.7000    14.7000     2.0000     1.0000   300.0230     0.000
     62     2.0000    -0.2500    -0.0001     4.7501     26.420    143.000 194311.000     30.000    58.0709   -20.0773   -35.5928   120.0962    -0.1480    -3.0001   -39.7588     0.0000     0.0000     0.0000     1.0000   300.0000   300.0000   -56.0301    66.2446    -1.9790    -1.4485    20.0000    20.0000    10.0000    20.0000    26.0000    10.0000    16.0000    20.0000    -0.0005     0.0005   159.4164   -41.1662     3.1474    19.4501    14.7000     2.0000     1.0000   300.0080     0.000
     63     2.0000    -0.2500    -0.0001     4.4998     26.526    135.000 194311.000     30.000    58.4478   -20.0773   -35.8319   120.0962    -0.1480    -3.0001   -39.4868     0.0000     0.0000     0.0000     1.0000   300.0000   300.0000   -56.1921    66.5477    -1.9790    -1.4485    20.0000    20.0000    10.0000    20.0000    26.0000    10.0000    16.0000    20.0000    -0.0005     0.0005   159.4164   -41.1662     3.1475    19.1999    14.7000     2.0000     1.0000   300.0020     0.000
     64     2.0000    -0.2500    -0.0001     4.2501     26.610     93.000 194311.000     30.000    58.8321   -20.0773   -36.0753   120.0962    -0.1480    -3.0001   -39.2133     0.0000     0.0000     0.0000     1.0000   300.0000   300.0000   -56.3541    66.8499    -1.9790    -1.4485    20.0000    20.0000    10.0000    20.0000    26.0000    10.0000    16.0000    20.0000    -0.0005     0.0005   159.4164   -41.1662     3.1474    18.9501    14.7000     2.0000     1.0000   299.9950     0.000
     65     2.0000    -0.2500    -0.0001     4.0000     26.800    112.000 194311.000     30.000    59.2240   -20.0773   -36.3241   120.0962    -0.1480    -3.0001   -38.9382     0.0000     0.0000     0.0000     1.0000   300.0000   300.0000   -56.5151    67.1588    -1.9790    -1.4485    20.0000    20.0000    10.0000    20.0000    26.0000    10.0000    16.0000    20.0000    -0.0005     0.0005   159.4164   -41.1662     3.1475    18.7000    14.7000     2.0000     1.0000   299.9680     0.000
     66     2.0000    -0.2500    -0.0001     3.7501     27.192    108.000 194311.000     30.000    59.6240   -20.0773   -36.5779   120.0962    -0.1480    -3.0001   -38.6614     0.0000     0.0000     0.0000     1.0000   300.0000   300.0000   -56.6765    67.4662    -1.9790    -1.4485    20.0000    20.0000    10.0000    20.0000    26.0000    10.0000    16.0000    20.0000    -0.0005     0.0005   159.4164   -41.1662     3.1475    18.4501    14.7000     2.0000     1.0000   299.9970     0.000
     67     2.0001    -0.2501    -0.0001     3.5001     28.033     97.000 194311.000     30.000    60.0321   -20.0773   -36.8373   120.0962    -0.1480    -3.0001   -38.3830     0.0000     0.0000     0.0000     1.0000   300.0000   300.0000   -56.8374    67.7800    -1.9790    -1.4485    20.0000    20.0000    10.0000    20.0000    26.0000    10.0000    16.0000    20.0000    -0.0005     0.0005   159.4164   -41.1662     3.1476    18.2001    14.7000     2.0000     1.0000   300.0050     0.000
     68     2.0000    -0.2500    -0.0001     3.2498     28.995     85.000 194311.000     30.000    60.4487   -20.0773   -37.1025   120.0962    -0.1480    -3.0001   -38.1029     0.0000     0.0000     0.0000     1.0000   300.0000   300.0000   -56.9981    68.0897    -1.9790    -1.4485    20.0000    20.0000    10.0000    20.0000    26.0000    10.0000    16.0000    20.0000    -0.0005     0.0005   159.4164   -41.1662     3.1474    17.9498    14.7000     2.0000     1.0000   299.9430     0.000
     69     2.0001    -0.2501    -0.0001     3.0004     29.774     49.000 194311.000     30.000    60.8740   -20.0773   -37.3725   120.0962    -0.1480    -3.0001   -37.8211     0.0000     0.0000     0.0000     1.0000   300.0000   300.0000   -57.1585    68.4086    -1.9790    -1.4485    20.0000    20.0000    10.0000    20.0000    26.0000    10.0000    16.0000    20.0000    -0.0005     0.0005   159.4164   -41.1662     3.1476    17.7004    14.7000     2.0000     1.0000   300.0010     0.000
     70     2.0000    -0.2500    -0.0001     2.7498     29.818     55.000 194311.000     30.000    61.3086   -20.0773   -37.6500   120.0962    -0.1480    -3.0001   -37.5375     0.0000     0.0000     0.0000     1.0000   300.0000   300.0000   -57.3182    68.7259    -1.9790    -1.4485    20.0000    20.0000    10.0000    20.0000    26.0000    10.0000    16.0000    20.0000    -0.0005     0.0005   159.4164   -41.1662     3.1475    17.4498    14.7000     2.0000     1.0000   299.9960     0.000
     71     2.0000    -0.2500    -0.0001     2.4999     29.235     60.000 194311.000     30.000    61.7525   -20.0773   -37.9328   120.0962    -0.1480    -3.0001   -37.2522     0.0000     0.0000     0.0000     1.0000   300.0000   300.0000   -57.4778    69.0450    -1.9790    -1.4485    20.0000    20.0000    10.0000    20.0000    26.0000    10.0000    16.0000    20.0000    -0.0005     0.0005   159.4164   -41.1662     3.1474    17.1999    14.7000     2.0000     1.0000   299.9300     0.000
     72     2.0001    -0.2501    -0.0001     2.2499     29.493     63.000 194311.000     30.000    62.2063   -20.0773   -38.2224   120.0962    -0.1480    -3.0001   -36.9649     0.0000     0.0000     0.0000     1.0000   300.0000   300.0000   -57.6373    69.3749    -1.9790    -1.4485    20.0000    20.0000    10.0000    20.0000    26.0000    10.0000    16.0000    20.0000    -0.0005     0.0005   159.4164   -41.1662     3.1476    16.9499    14.7000     2.0000     1.0000   300.0050     0.000
     73     2.0000    -0.2500    -0.0001     2.0000     29.744     64.000 194311.000     30.000    62.6702   -20.0773   -38.5184   120.0962    -0.1480    -3.0001   -36.6758     0.0000     0.0000     0.0000     1.0000   300.0000   300.0000   -57.7961    69.6981    -1.9790    -1.4485    20.0000    20.0000    10.0000    20.0000    26.0000    10.0000    16.0000    20.0000    -0.0005     0.0005   159.4164   -41.1662     3.1475    16.7000    14.7000     2.0000     1.0000   300.0010     0.000
     74     2.0000    -0.2500    -0.0001     1.7499     30.174     68.000 194311.000     30.000    63.1445   -20.0773   -38.8218   120.0962    -0.1480    -3.0001   -36.3848     0.0000     0.0000     0.0000     1.0000   300.0000   300.0000   -57.9548    70.0298    -1.9790    -1.4485    20.0000    20.0000    10.0000    20.0000    26.0000    10.0000    16.0000    20.0000    -0.0005     0.0005   159.4164   -41.1662     3.1475    16.4499    14.7000     2.0000     1.0000   300.0220     0.000
     75     2.0000    -0.2500    -0.0001     1.5000     30.440     75.000 194311.000     30.000    63.6299   -20.0773   -39.1322   120.0962    -0.1480    -3.0001   -36.0918     0.0000     0.0000     0.0000     1.0000   300.0000   300.0000   -58.1124    70.3623    -1.9790    -1.4485    20.0000    20.0000    10.0000    20.0000    26.0000    10.0000    16.0000    20.0000    -0.0005     0.0005   159.4164   -41.1662     3.1475    16.2000    14.7000     2.0000     1.0000   300.0090     0.000
     76     2.0000    -0.2500    -0.0001     1.2500     31.608     98.000 194311.000     30.000    64.1267   -20.0773   -39.4503   120.0962    -0.1480    -3.0001   -35.7968     0.0000     0.0000     0.0000     1.0000   300.0000   300.0000   -58.2701    70.6985    -1.9790    -1.4485    20.0000    20.0000    10.0000    20.0000    26.0000    10.0000    16.0000    20.0000    -0.0005     0.0005   159.4164   -41.1662     3.1475    15.9500    14.7000     2.0000     1.0000   300.0240     0.000
     77     2.0000    -0.2500    -0.0001     1.0000     33.234    133.000 194311.000     30.000    64.6352   -20.0773   -39.7763   120.0962    -0.1480    -3.0001   -35.4997     0.0000     0.0000     0.0000     1.0000   300.0000   300.0000   -58.4270    71.0369    -1.9790    -1.4485    20.0000    20.0000    10.0000    20.0000    26.0000    10.0000    16.0000    20.0000    -0.0005     0.0005   159.4164   -41.1662     3.1474    15.7000    14.7000     2.0000     1.0000   300.0190     0.000
     78     2.0001    -0.2501    -0.0001     0.7500     33.554    214.000 194311.000     30.000    65.1560   -20.0773   -40.1105   120.0962    -0.1480    -3.0001   -35.2005     0.0000     0.0000     0.0000     1.0000   300.0000   300.0000   -58.5836    71.3855    -1.9790    -1.4485    20.0000    20.0000    10.0000    20.0000    26.0000    10.0000    16.0000    20.0000    -0.0005     0.0005   159.4164   -41.1662     3.1476    15.4500    14.7000     2.0000     1.0000   300.0010     0.000
     79     2.0000    -0.2500    -0.0001     0.5001     33.059    439.000 194311.000     30.000    65.6897   -20.0773   -40.4532   120.0962    -0.1480    -3.0001   -34.8991     0.0000     0.0000     0.0000     1.0000   300.0000   300.0000   -58.7394    71.7308    -1.9790    -1.4485    20.0000    20.0000    10.0000    20.0000    26.0000    10.0000    16.0000    20.0000    -0.0005     0.0005   159.4164   -41.1662     3.1475    15.2001    14.7000     2.0000     1.0000   300.0000     0.000
# Sum of Counts = 5743
# Center of Mass = 8.282587+/-0.172637
# Full Width Half-Maximum = 11.655015+/-0.138445
# 8:23:46 AM  9/9/2024   scan completed.
