# scan = 14
# date = 9/4/2024
# time = 12:11:44 PM
# proposal = 32905
# experiment = Effects of electric field on phonon dispersion and lifetimes of poled PMN-30PT
# experiment_number = 812
# command = scan bbt 0 38 2
# builtin_command = scan bbt 0 38 2
# users = George Yumnam, Michael Manley, Puspa Upreti, Raphael Hermann, SHAOFEI WANG
# local_contact = Songxue Chi
# scan_title = slit scan with (200)
# monochromator = PG002
# analyzer = Pg002
# sense = -+-
# collimation = 48-40-40-120
# samplename = PMN-30PT
# sampletype = crystal
# samplemosaic = 30.000000
# latticeconstants = 4.023634,4.023634,4.023634,90.000000,90.000000,90.000000
# ubmatrix = -0.008055,-0.248252,-0.008588,-0.248328,0.007840,0.006285,-0.006007,0.008785,-0.248304
# mode = 0
# plane_normal = 0.034555,-0.025290,0.999083
# ubconf = UB04Sep2024_115522AM.ini
# preset_type = normal 
# preset_channel = time
# preset_value = 1.000000
# def_x = bbt
# def_y = detector
# col_headers = 
#   Pt.        bbt       time   detector    monitor        mcu focal_length         m1         m2   mcrystal       marc     mtrans     mfocus       ampl         dc       freq     output       temp     temp_2         s1         s2        sgl        sgu        bbb        bbl        bbr        bab        bal        bar        bat        stl        stu         a1         a2          q          h          k          l         ei         ef          e   ampl_out output_state        vti     sample
      1     0.0000      1.000  21609.000    477.000      0.075    66.7975   -20.0773   -41.1658   120.0962    -0.1480    -3.0001   -34.2897     0.0000     0.0000     0.0000     1.0000   300.0000   300.0000   -52.2466    71.7891    -1.9790    -1.4500    38.0000    34.0000    34.0000    38.0000    34.0000    34.0000    38.0000    -0.0005     0.0005   159.4164   -41.1662     3.1232     2.0000     0.0000     0.0000    14.7003    14.7000     0.0003     2.0000     1.0000   300.8490     0.000
      2     2.0000      1.000  24202.000    463.000      0.073    66.7975   -20.0773   -41.1658   120.0962    -0.1480    -3.0001   -34.2897     0.0000     0.0000     0.0000     1.0000   300.0000   300.0000   -52.2466    71.7891    -1.9790    -1.4500    38.0000    34.0000    34.0000    38.0000    34.0000    34.0000    38.0000    -0.0005     0.0005   159.4164   -41.1662     3.1232     2.0000     0.0000     0.0000    14.7003    14.7000     0.0003     2.0000     1.0000   300.2280     0.000
      3     4.0000      1.000  25851.000    515.000      0.081    66.7975   -20.0773   -41.1658   120.0962    -0.1480    -3.0001   -34.2897     0.0000     0.0000     0.0000     1.0000   300.0000   300.0000   -52.2466    71.7891    -1.9790    -1.4500    38.0000    34.0000    34.0000    38.0000    34.0000    34.0000    38.0000    -0.0005     0.0005   159.4164   -41.1662     3.1232     2.0000     0.0000     0.0000    14.7003    14.7000     0.0003     2.0000     1.0000   300.1790     0.000
      4     6.0000      1.000  26874.000    472.000      0.074    66.7975   -20.0773   -41.1658   120.0962    -0.1480    -3.0001   -34.2897     0.0000     0.0000     0.0000     1.0000   300.0000   300.0000   -52.2466    71.7891    -1.9790    -1.4500    38.0000    34.0000    34.0000    38.0000    34.0000    34.0000    38.0000    -0.0005     0.0005   159.4164   -41.1662     3.1232     2.0000     0.0000     0.0000    14.7003    14.7000     0.0003     2.0000     1.0000   300.1270     0.000
      5     8.0000      1.000  28116.000    494.000      0.078    66.7975   -20.0773   -41.1658   120.0962    -0.1480    -3.0001   -34.2897     0.0000     0.0000     0.0000     1.0000   300.0000   300.0000   -52.2466    71.7891    -1.9790    -1.4500    38.0000    34.0000    34.0000    38.0000    34.0000    34.0000    38.0000    -0.0005     0.0005   159.4164   -41.1662     3.1232     2.0000     0.0000     0.0000    14.7003    14.7000     0.0003     2.0000     1.0000   300.0940     0.000
      6    10.0000      1.000  29309.000    493.000      0.078    66.7975   -20.0773   -41.1658   120.0962    -0.1480    -3.0001   -34.2897     0.0000     0.0000     0.0000     1.0000   300.0000   300.0000   -52.2466    71.7891    -1.9790    -1.4500    38.0000    34.0000    34.0000    38.0000    34.0000    34.0000    38.0000    -0.0005     0.0005   159.4164   -41.1662     3.1232     2.0000     0.0000     0.0000    14.7003    14.7000     0.0003     2.0000     1.0000   300.0890     0.000
      7    12.0000      1.000  29522.000    509.000      0.080    66.7975   -20.0773   -41.1658   120.0962    -0.1480    -3.0001   -34.2897     0.0000     0.0000     0.0000     1.0000   300.0000   300.0000   -52.2466    71.7891    -1.9790    -1.4500    38.0000    34.0000    34.0000    38.0000    34.0000    34.0000    38.0000    -0.0005     0.0005   159.4164   -41.1662     3.1232     2.0000     0.0000     0.0000    14.7003    14.7000     0.0003     2.0000     1.0000   300.2900     0.000
      8    14.0000      1.000  29903.000    504.000      0.079    66.7975   -20.0773   -41.1658   120.0962    -0.1480    -3.0001   -34.2897     0.0000     0.0000     0.0000     1.0000   300.0000   300.0000   -52.2466    71.7891    -1.9790    -1.4500    38.0000    34.0000    34.0000    38.0000    34.0000    34.0000    38.0000    -0.0005     0.0005   159.4164   -41.1662     3.1232     2.0000     0.0000     0.0000    14.7003    14.7000     0.0003     2.0000     1.0000   300.4300     0.000
      9    16.0000      1.000  30118.000    466.000      0.074    66.7975   -20.0773   -41.1658   120.0962    -0.1480    -3.0001   -34.2897     0.0000     0.0000     0.0000     1.0000   300.0000   300.0000   -52.2466    71.7891    -1.9790    -1.4500    38.0000    34.0000    34.0000    38.0000    34.0000    34.0000    38.0000    -0.0005     0.0005   159.4164   -41.1662     3.1232     2.0000     0.0000     0.0000    14.7003    14.7000     0.0003     2.0000     1.0000   300.3590     0.000
     10    18.0000      1.000  30347.000    419.000      0.066    66.7975   -20.0773   -41.1658   120.0962    -0.1480    -3.0001   -34.2897     0.0000     0.0000     0.0000     1.0000   300.0000   300.0000   -52.2466    71.7891    -1.9790    -1.4500    38.0000    34.0000    34.0000    38.0000    34.0000    34.0000    38.0000    -0.0005     0.0005   159.4164   -41.1662     3.1232     2.0000     0.0000     0.0000    14.7003    14.7000     0.0003     2.0000     1.0000   300.1690     0.000
     11    20.0000      1.000  30399.000    451.000      0.071    66.7975   -20.0773   -41.1658   120.0962    -0.1480    -3.0001   -34.2897     0.0000     0.0000     0.0000     1.0000   300.0000   300.0000   -52.2466    71.7891    -1.9790    -1.4500    38.0000    34.0000    34.0000    38.0000    34.0000    34.0000    38.0000    -0.0005     0.0005   159.4164   -41.1662     3.1232     2.0000     0.0000     0.0000    14.7003    14.7000     0.0003     2.0000     1.0000   300.0400     0.000
     12    22.0000      1.000  30274.000    466.000      0.074    66.7975   -20.0773   -41.1658   120.0962    -0.1480    -3.0001   -34.2897     0.0000     0.0000     0.0000     1.0000   300.0000   300.0000   -52.2466    71.7891    -1.9790    -1.4500    38.0000    34.0000    34.0000    38.0000    34.0000    34.0000    38.0000    -0.0005     0.0005   159.4164   -41.1662     3.1232     2.0000     0.0000     0.0000    14.7003    14.7000     0.0003     2.0000     1.0000   300.0570     0.000
     13    24.0000      1.000  30559.000    501.000      0.079    66.7975   -20.0773   -41.1658   120.0962    -0.1480    -3.0001   -34.2897     0.0000     0.0000     0.0000     1.0000   300.0000   300.0000   -52.2466    71.7891    -1.9790    -1.4500    38.0000    34.0000    34.0000    38.0000    34.0000    34.0000    38.0000    -0.0005     0.0005   159.4164   -41.1662     3.1232     2.0000     0.0000     0.0000    14.7003    14.7000     0.0003     2.0000     1.0000   300.0910     0.000
     14    26.0000      1.000  29870.000    481.000      0.076    66.7975   -20.0773   -41.1658   120.0962    -0.1480    -3.0001   -34.2897     0.0000     0.0000     0.0000     1.0000   300.0000   300.0000   -52.2466    71.7891    -1.9790    -1.4500    38.0000    34.0000    34.0000    38.0000    34.0000    34.0000    38.0000    -0.0005     0.0005   159.4164   -41.1662     3.1232     2.0000     0.0000     0.0000    14.7003    14.7000     0.0003     2.0000     1.0000   300.0360     0.000
     15    28.0000      1.000  30331.000    478.000      0.075    66.7975   -20.0773   -41.1658   120.0962    -0.1480    -3.0001   -34.2897     0.0000     0.0000     0.0000     1.0000   300.0000   300.0000   -52.2466    71.7891    -1.9790    -1.4500    38.0000    34.0000    34.0000    38.0000    34.0000    34.0000    38.0000    -0.0005     0.0005   159.4164   -41.1662     3.1232     2.0000     0.0000     0.0000    14.7003    14.7000     0.0003     2.0000     1.0000   300.0470     0.000
     16    30.0000      1.000  30178.000    456.000      0.072    66.7975   -20.0773   -41.1658   120.0962    -0.1480    -3.0001   -34.2897     0.0000     0.0000     0.0000     1.0000   300.0000   300.0000   -52.2466    71.7891    -1.9790    -1.4500    38.0000    34.0000    34.0000    38.0000    34.0000    34.0000    38.0000    -0.0005     0.0005   159.4164   -41.1662     3.1232     2.0000     0.0000     0.0000    14.7003    14.7000     0.0003     2.0000     1.0000   300.1360     0.000
     17    32.0000      1.000  30028.000    443.000      0.070    66.7975   -20.0773   -41.1658   120.0962    -0.1480    -3.0001   -34.2897     0.0000     0.0000     0.0000     1.0000   300.0000   300.0000   -52.2466    71.7891    -1.9790    -1.4500    38.0000    34.0000    34.0000    38.0000    34.0000    34.0000    38.0000    -0.0005     0.0005   159.4164   -41.1662     3.1232     2.0000     0.0000     0.0000    14.7003    14.7000     0.0003     2.0000     1.0000   300.1700     0.000
     18    34.0000      1.000  30421.000    486.000      0.077    66.7975   -20.0773   -41.1658   120.0962    -0.1480    -3.0001   -34.2897     0.0000     0.0000     0.0000     1.0000   300.0000   300.0000   -52.2466    71.7891    -1.9790    -1.4500    38.0000    34.0000    34.0000    38.0000    34.0000    34.0000    38.0000    -0.0005     0.0005   159.4164   -41.1662     3.1232     2.0000     0.0000     0.0000    14.7003    14.7000     0.0003     2.0000     1.0000   300.1270     0.000
     19    36.0000      1.000  30289.000    506.000      0.080    66.7975   -20.0773   -41.1658   120.0962    -0.1480    -3.0001   -34.2897     0.0000     0.0000     0.0000     1.0000   300.0000   300.0000   -52.2466    71.7891    -1.9790    -1.4500    38.0000    34.0000    34.0000    38.0000    34.0000    34.0000    38.0000    -0.0005     0.0005   159.4164   -41.1662     3.1232     2.0000     0.0000     0.0000    14.7003    14.7000     0.0003     2.0000     1.0000   300.1280     0.000
     20    38.0000      1.000  30174.000    465.000      0.073    66.7975   -20.0773   -41.1658   120.0962    -0.1480    -3.0001   -34.2897     0.0000     0.0000     0.0000     1.0000   300.0000   300.0000   -52.2466    71.7891    -1.9790    -1.4500    38.0000    34.0000    34.0000    38.0000    34.0000    34.0000    38.0000    -0.0005     0.0005   159.4164   -41.1662     3.1232     2.0000     0.0000     0.0000    14.7003    14.7000     0.0003     2.0000     1.0000   300.1620     0.000
# Sum of Counts = 578374
# Center of Mass = 19.715596+/-0.039539
# Full Width Half-Maximum = 22.520433+/-0.030387
# 12:13:35 PM  9/4/2024   scan completed.
