# scan = 11
# date = 9/4/2024
# time = 12:06:32 PM
# proposal = 32905
# experiment = Effects of electric field on phonon dispersion and lifetimes of poled PMN-30PT
# experiment_number = 812
# command = scan bbb 0 38 2
# builtin_command = scan bbb 0 38 2
# users = George Yumnam, Michael Manley, Puspa Upreti, Raphael Hermann, SHAOFEI WANG
# local_contact = Songxue Chi
# scan_title = slit scan with (200)
# monochromator = PG002
# analyzer = Pg002
# sense = -+-
# collimation = 48-40-40-120
# samplename = PMN-30PT
# sampletype = crystal
# samplemosaic = 30.000000
# latticeconstants = 4.023634,4.023634,4.023634,90.000000,90.000000,90.000000
# ubmatrix = -0.008055,-0.248252,-0.008588,-0.248328,0.007840,0.006285,-0.006007,0.008785,-0.248304
# mode = 0
# plane_normal = 0.034555,-0.025290,0.999083
# ubconf = UB04Sep2024_115522AM.ini
# preset_type = normal 
# preset_channel = time
# preset_value = 1.000000
# def_x = bbb
# def_y = detector
# col_headers = 
#   Pt.        bbb       time   detector    monitor        mcu focal_length         m1         m2   mcrystal       marc     mtrans     mfocus       ampl         dc       freq     output       temp     temp_2         s1         s2        sgl        sgu        bbl        bbr        bbt        bab        bal        bar        bat        stl        stu         a1         a2          q          h          k          l         ei         ef          e   ampl_out output_state        vti     sample
      1     0.0000      1.000  14831.000    466.000      0.074    66.7975   -20.0773   -41.1658   120.0962    -0.1480    -3.0001   -34.2897     0.0000     0.0000     0.0000     1.0000   300.0000   300.0000   -52.2466    71.7891    -1.9790    -1.4500    34.0000    34.0000    38.0000    38.0000    34.0000    34.0000    38.0000    -0.0005     0.0005   159.4164   -41.1662     3.1232     2.0000     0.0000     0.0000    14.7003    14.7000     0.0003     2.0000     1.0000   300.3940     0.000
      2     2.0000      1.000  17847.000    464.000      0.073    66.7975   -20.0773   -41.1658   120.0962    -0.1480    -3.0001   -34.2897     0.0000     0.0000     0.0000     1.0000   300.0000   300.0000   -52.2466    71.7891    -1.9790    -1.4500    34.0000    34.0000    38.0000    38.0000    34.0000    34.0000    38.0000    -0.0005     0.0005   159.4164   -41.1662     3.1232     2.0000     0.0000     0.0000    14.7003    14.7000     0.0003     2.0000     1.0000   300.2630     0.000
      3     4.0000      1.000  20737.000    476.000      0.075    66.7975   -20.0773   -41.1658   120.0962    -0.1480    -3.0001   -34.2897     0.0000     0.0000     0.0000     1.0000   300.0000   300.0000   -52.2466    71.7891    -1.9790    -1.4500    34.0000    34.0000    38.0000    38.0000    34.0000    34.0000    38.0000    -0.0005     0.0005   159.4164   -41.1662     3.1232     2.0000     0.0000     0.0000    14.7003    14.7000     0.0003     2.0000     1.0000   300.2320     0.000
      4     6.0000      1.000  23352.000    485.000      0.076    66.7975   -20.0773   -41.1658   120.0962    -0.1480    -3.0001   -34.2897     0.0000     0.0000     0.0000     1.0000   300.0000   300.0000   -52.2466    71.7891    -1.9790    -1.4500    34.0000    34.0000    38.0000    38.0000    34.0000    34.0000    38.0000    -0.0005     0.0005   159.4164   -41.1662     3.1232     2.0000     0.0000     0.0000    14.7003    14.7000     0.0003     2.0000     1.0000   300.2310     0.000
      5     8.0000      1.000  25499.000    482.000      0.076    66.7975   -20.0773   -41.1658   120.0962    -0.1480    -3.0001   -34.2897     0.0000     0.0000     0.0000     1.0000   300.0000   300.0000   -52.2466    71.7891    -1.9790    -1.4500    34.0000    34.0000    38.0000    38.0000    34.0000    34.0000    38.0000    -0.0005     0.0005   159.4164   -41.1662     3.1232     2.0000     0.0000     0.0000    14.7003    14.7000     0.0003     2.0000     1.0000   300.1630     0.000
      6    10.0000      1.000  27346.000    474.000      0.075    66.7975   -20.0773   -41.1658   120.0962    -0.1480    -3.0001   -34.2897     0.0000     0.0000     0.0000     1.0000   300.0000   300.0000   -52.2466    71.7891    -1.9790    -1.4500    34.0000    34.0000    38.0000    38.0000    34.0000    34.0000    38.0000    -0.0005     0.0005   159.4164   -41.1662     3.1232     2.0000     0.0000     0.0000    14.7003    14.7000     0.0003     2.0000     1.0000   300.1460     0.000
      7    12.0000      1.000  28496.000    490.000      0.077    66.7975   -20.0773   -41.1658   120.0962    -0.1480    -3.0001   -34.2897     0.0000     0.0000     0.0000     1.0000   300.0000   300.0000   -52.2466    71.7891    -1.9790    -1.4500    34.0000    34.0000    38.0000    38.0000    34.0000    34.0000    38.0000    -0.0005     0.0005   159.4164   -41.1662     3.1232     2.0000     0.0000     0.0000    14.7003    14.7000     0.0003     2.0000     1.0000   300.1520     0.000
      8    14.0000      1.000  29083.000    462.000      0.073    66.7975   -20.0773   -41.1658   120.0962    -0.1480    -3.0001   -34.2897     0.0000     0.0000     0.0000     1.0000   300.0000   300.0000   -52.2466    71.7891    -1.9790    -1.4500    34.0000    34.0000    38.0000    38.0000    34.0000    34.0000    38.0000    -0.0005     0.0005   159.4164   -41.1662     3.1232     2.0000     0.0000     0.0000    14.7003    14.7000     0.0003     2.0000     1.0000   300.1020     0.000
      9    16.0000      1.000  29457.000    498.000      0.079    66.7975   -20.0773   -41.1658   120.0962    -0.1480    -3.0001   -34.2897     0.0000     0.0000     0.0000     1.0000   300.0000   300.0000   -52.2466    71.7891    -1.9790    -1.4500    34.0000    34.0000    38.0000    38.0000    34.0000    34.0000    38.0000    -0.0005     0.0005   159.4164   -41.1662     3.1232     2.0000     0.0000     0.0000    14.7003    14.7000     0.0003     2.0000     1.0000   300.0120     0.000
     10    18.0000      1.000  29946.000    486.000      0.077    66.7975   -20.0773   -41.1658   120.0962    -0.1480    -3.0001   -34.2897     0.0000     0.0000     0.0000     1.0000   300.0000   300.0000   -52.2466    71.7891    -1.9790    -1.4500    34.0000    34.0000    38.0000    38.0000    34.0000    34.0000    38.0000    -0.0005     0.0005   159.4164   -41.1662     3.1232     2.0000     0.0000     0.0000    14.7003    14.7000     0.0003     2.0000     1.0000   300.0130     0.000
     11    20.0000      1.000  29695.000    468.000      0.074    66.7975   -20.0773   -41.1658   120.0962    -0.1480    -3.0001   -34.2897     0.0000     0.0000     0.0000     1.0000   300.0000   300.0000   -52.2466    71.7891    -1.9790    -1.4500    34.0000    34.0000    38.0000    38.0000    34.0000    34.0000    38.0000    -0.0005     0.0005   159.4164   -41.1662     3.1232     2.0000     0.0000     0.0000    14.7003    14.7000     0.0003     2.0000     1.0000   300.1240     0.000
     12    22.0000      1.000  30238.000    452.000      0.071    66.7975   -20.0773   -41.1658   120.0962    -0.1480    -3.0001   -34.2897     0.0000     0.0000     0.0000     1.0000   300.0000   300.0000   -52.2466    71.7891    -1.9790    -1.4500    34.0000    34.0000    38.0000    38.0000    34.0000    34.0000    38.0000    -0.0005     0.0005   159.4164   -41.1662     3.1232     2.0000     0.0000     0.0000    14.7003    14.7000     0.0003     2.0000     1.0000   300.0500     0.000
     13    24.0000      1.000  29897.000    491.000      0.077    66.7975   -20.0773   -41.1658   120.0962    -0.1480    -3.0001   -34.2897     0.0000     0.0000     0.0000     1.0000   300.0000   300.0000   -52.2466    71.7891    -1.9790    -1.4500    34.0000    34.0000    38.0000    38.0000    34.0000    34.0000    38.0000    -0.0005     0.0005   159.4164   -41.1662     3.1232     2.0000     0.0000     0.0000    14.7003    14.7000     0.0003     2.0000     1.0000   299.9100     0.000
     14    26.0000      1.000  30531.000    418.000      0.066    66.7975   -20.0773   -41.1658   120.0962    -0.1480    -3.0001   -34.2897     0.0000     0.0000     0.0000     1.0000   300.0000   300.0000   -52.2466    71.7891    -1.9790    -1.4500    34.0000    34.0000    38.0000    38.0000    34.0000    34.0000    38.0000    -0.0005     0.0005   159.4164   -41.1662     3.1232     2.0000     0.0000     0.0000    14.7003    14.7000     0.0003     2.0000     1.0000   299.9450     0.000
     15    28.0000      1.000  30388.000    487.000      0.077    66.7975   -20.0773   -41.1658   120.0962    -0.1480    -3.0001   -34.2897     0.0000     0.0000     0.0000     1.0000   300.0000   300.0000   -52.2466    71.7891    -1.9790    -1.4500    34.0000    34.0000    38.0000    38.0000    34.0000    34.0000    38.0000    -0.0005     0.0005   159.4164   -41.1662     3.1232     2.0000     0.0000     0.0000    14.7003    14.7000     0.0003     2.0000     1.0000   300.0680     0.000
     16    30.0000      1.000  30494.000    443.000      0.070    66.7975   -20.0773   -41.1658   120.0962    -0.1480    -3.0001   -34.2897     0.0000     0.0000     0.0000     1.0000   300.0000   300.0000   -52.2466    71.7891    -1.9790    -1.4500    34.0000    34.0000    38.0000    38.0000    34.0000    34.0000    38.0000    -0.0005     0.0005   159.4164   -41.1662     3.1232     2.0000     0.0000     0.0000    14.7003    14.7000     0.0003     2.0000     1.0000   299.9530     0.000
     17    32.0000      1.000  30068.000    449.000      0.071    66.7975   -20.0773   -41.1658   120.0962    -0.1480    -3.0001   -34.2897     0.0000     0.0000     0.0000     1.0000   300.0000   300.0000   -52.2466    71.7891    -1.9790    -1.4500    34.0000    34.0000    38.0000    38.0000    34.0000    34.0000    38.0000    -0.0005     0.0005   159.4164   -41.1662     3.1232     2.0000     0.0000     0.0000    14.7003    14.7000     0.0003     2.0000     1.0000   299.8970     0.000
     18    34.0000      1.000  30534.000    447.000      0.071    66.7975   -20.0773   -41.1658   120.0962    -0.1480    -3.0001   -34.2897     0.0000     0.0000     0.0000     1.0000   300.0000   300.0000   -52.2466    71.7891    -1.9790    -1.4500    34.0000    34.0000    38.0000    38.0000    34.0000    34.0000    38.0000    -0.0005     0.0005   159.4164   -41.1662     3.1232     2.0000     0.0000     0.0000    14.7003    14.7000     0.0003     2.0000     1.0000   299.7010     0.000
     19    36.0000      1.000  30191.000    454.000      0.072    66.7975   -20.0773   -41.1658   120.0962    -0.1480    -3.0001   -34.2897     0.0000     0.0000     0.0000     1.0000   300.0000   300.0000   -52.2466    71.7891    -1.9790    -1.4500    34.0000    34.0000    38.0000    38.0000    34.0000    34.0000    38.0000    -0.0005     0.0005   159.4164   -41.1662     3.1232     2.0000     0.0000     0.0000    14.7003    14.7000     0.0003     2.0000     1.0000   300.0010     0.000
     20    38.0000      1.000  30331.000    481.000      0.076    66.7975   -20.0773   -41.1658   120.0962    -0.1480    -3.0001   -34.2897     0.0000     0.0000     0.0000     1.0000   300.0000   300.0000   -52.2466    71.7891    -1.9790    -1.4500    34.0000    34.0000    38.0000    38.0000    34.0000    34.0000    38.0000    -0.0005     0.0005   159.4164   -41.1662     3.1232     2.0000     0.0000     0.0000    14.7003    14.7000     0.0003     2.0000     1.0000   300.0230     0.000
# Sum of Counts = 548961
# Center of Mass = 20.532606+/-0.041887
# Full Width Half-Maximum = 21.909065+/-0.031024
# 12:08:24 PM  9/4/2024   scan completed.
