# scan = 200
# date = 9/9/2024
# time = 3:19:23 AM
# proposal = 32905
# experiment = Effects of electric field on phonon dispersion and lifetimes of poled PMN-30PT
# experiment_number = 812
# command = scan h 2 k 0 l 0 e 20 0.5 0.25 preset mcu 30
# builtin_command = scan h 2 k 0 l 0 e 20 0.5 0.25 preset mcu 30
# users = George Yumnam, Michael Manley, Puspa Upreti, Raphael Hermann, SHAOFEI WANG
# local_contact = Songxue Chi
# scan_title = (2,0,0) G to X transverse mode scan at 0V ramping down
# monochromator = PG002
# analyzer = Pg002
# sense = -+-
# collimation = 48-40-40-120
# samplename = PMN-30PT
# sampletype = crystal
# samplemosaic = 30.000000
# latticeconstants = 4.023634,4.023634,4.023634,90.000000,90.000000,90.000000
# ubmatrix = -0.008055,-0.248252,-0.008588,-0.248328,0.007840,0.006285,-0.006007,0.008785,-0.248304
# mode = 0
# plane_normal = 0.034555,-0.025290,0.999083
# ubconf = UB04Sep2024_115522AM.ini
# preset_type = normal 
# preset_channel = mcu
# preset_value = 30.000000
# def_x = e
# def_y = detector
# col_headers = 
#   Pt.          h          k          l          e       time   detector    monitor        mcu focal_length         m1         m2   mcrystal       marc     mtrans     mfocus       ampl         dc       freq     output       temp     temp_2         s1         s2        sgl        sgu        bbb        bbl        bbr        bbt        bab        bal        bar        bat        stl        stu         a1         a2          q         ei         ef   ampl_out output_state        vti     sample
      1     2.0001    -0.0001    -0.0001    20.0031     25.230     34.000 194311.000     30.000    43.4765   -20.0773   -26.4544   120.0962    -0.1480    -3.0001   -54.2224     0.0000     0.0000     0.0000     1.0000   300.0000   300.0000   -38.7478    49.7444    -1.9790    -1.4485    20.0000    20.0000    10.0000    20.0000    26.0000    10.0000    16.0000    20.0000    -0.0005     0.0005   159.4164   -41.1662     3.1232    34.7031    14.7000     2.0000     1.0000   300.0330     0.000
      2     2.0000     0.0000    -0.0001    19.7498     25.051     32.000 194311.000     30.000    43.6339   -20.0773   -26.5533   120.0962    -0.1480    -3.0001   -54.0105     0.0000     0.0000     0.0000     1.0000   300.0000   300.0000   -38.9224    49.9879    -1.9790    -1.4485    20.0000    20.0000    10.0000    20.0000    26.0000    10.0000    16.0000    20.0000    -0.0005     0.0005   159.4164   -41.1662     3.1232    34.4498    14.7000     2.0000     1.0000   300.0220     0.000
      3     2.0000     0.0000    -0.0001    19.4998     25.072     23.000 194311.000     30.000    43.7931   -20.0773   -26.6519   120.0962    -0.1480    -3.0001   -53.7978     0.0000     0.0000     0.0000     1.0000   300.0000   300.0000   -39.0970    50.2265    -1.9790    -1.4485    20.0000    20.0000    10.0000    20.0000    26.0000    10.0000    16.0000    20.0000    -0.0005     0.0005   159.4164   -41.1662     3.1231    34.1998    14.7000     2.0000     1.0000   300.0210     0.000
      4     1.9999     0.0000    -0.0001    19.2499     25.294     29.000 194311.000     30.000    43.9541   -20.0773   -26.7516   120.0962    -0.1480    -3.0001   -53.5845     0.0000     0.0000     0.0000     1.0000   300.0000   300.0000   -39.2711    50.4670    -1.9790    -1.4485    20.0000    20.0000    10.0000    20.0000    26.0000    10.0000    16.0000    20.0000    -0.0005     0.0005   159.4164   -41.1662     3.1231    33.9499    14.7000     2.0000     1.0000   300.0030     0.000
      5     2.0001    -0.0000    -0.0001    19.0006     25.314     30.000 194311.000     30.000    44.1168   -20.0773   -26.8523   120.0962    -0.1480    -3.0001   -53.3706     0.0000     0.0000     0.0000     1.0000   300.0000   300.0000   -39.4447    50.7119    -1.9790    -1.4485    20.0000    20.0000    10.0000    20.0000    26.0000    10.0000    16.0000    20.0000    -0.0005     0.0005   159.4164   -41.1662     3.1232    33.7006    14.7000     2.0000     1.0000   299.9850     0.000
      6     2.0000     0.0000    -0.0001    18.7493     25.534     33.000 194311.000     30.000    44.2813   -20.0773   -26.9549   120.0962    -0.1480    -3.0001   -53.1560     0.0000     0.0000     0.0000     1.0000   300.0000   300.0000   -39.6191    50.9548    -1.9790    -1.4485    20.0000    20.0000    10.0000    20.0000    26.0000    10.0000    16.0000    20.0000    -0.0005     0.0005   159.4164   -41.1662     3.1232    33.4493    14.7000     2.0000     1.0000   300.0030     0.000
      7     2.0001     0.0000    -0.0001    18.5001     25.653     25.000 194311.000     30.000    44.4478   -20.0773   -27.0577   120.0962    -0.1480    -3.0001   -52.9407     0.0000     0.0000     0.0000     1.0000   300.0000   300.0000   -39.7923    51.1970    -1.9790    -1.4485    20.0000    20.0000    10.0000    20.0000    26.0000    10.0000    16.0000    20.0000    -0.0005     0.0005   159.4164   -41.1662     3.1232    33.2001    14.7000     2.0000     1.0000   300.0110     0.000
      8     2.0000    -0.0000    -0.0001    18.2502     25.783     38.000 194311.000     30.000    44.6161   -20.0773   -27.1621   120.0962    -0.1480    -3.0001   -52.7248     0.0000     0.0000     0.0000     1.0000   300.0000   300.0000   -39.9657    51.4373    -1.9790    -1.4485    20.0000    20.0000    10.0000    20.0000    26.0000    10.0000    16.0000    20.0000    -0.0005     0.0005   159.4164   -41.1662     3.1231    32.9502    14.7000     2.0000     1.0000   300.0080     0.000
      9     2.0000     0.0000    -0.0001    17.9998     25.985     27.000 194311.000     30.000    44.7863   -20.0773   -27.2679   120.0962    -0.1480    -3.0001   -52.5081     0.0000     0.0000     0.0000     1.0000   300.0000   300.0000   -40.1391    51.6804    -1.9790    -1.4485    20.0000    20.0000    10.0000    20.0000    26.0000    10.0000    16.0000    20.0000    -0.0005     0.0005   159.4164   -41.1662     3.1231    32.6998    14.7000     2.0000     1.0000   299.9960     0.000
     10     2.0001    -0.0000    -0.0001    17.7505     26.141     26.000 194311.000     30.000    44.9585   -20.0773   -27.3745   120.0962    -0.1480    -3.0001   -52.2908     0.0000     0.0000     0.0000     1.0000   300.0000   300.0000   -40.3119    51.9275    -1.9790    -1.4485    20.0000    20.0000    10.0000    20.0000    26.0000    10.0000    16.0000    20.0000    -0.0005     0.0005   159.4164   -41.1662     3.1233    32.4505    14.7000     2.0000     1.0000   299.9430     0.000
     11     2.0001     0.0000    -0.0001    17.4997     26.287     32.000 194311.000     30.000    45.1326   -20.0773   -27.4829   120.0962    -0.1480    -3.0001   -52.0728     0.0000     0.0000     0.0000     1.0000   300.0000   300.0000   -40.4846    52.1708    -1.9790    -1.4485    20.0000    20.0000    10.0000    20.0000    26.0000    10.0000    16.0000    20.0000    -0.0005     0.0005   159.4164   -41.1662     3.1233    32.1997    14.7000     2.0000     1.0000   300.0150     0.000
     12     2.0001    -0.0000    -0.0001    17.2499     26.357     29.000 194311.000     30.000    45.3089   -20.0773   -27.5923   120.0962    -0.1480    -3.0001   -51.8540     0.0000     0.0000     0.0000     1.0000   300.0000   300.0000   -40.6575    52.4143    -1.9790    -1.4485    20.0000    20.0000    10.0000    20.0000    26.0000    10.0000    16.0000    20.0000    -0.0005     0.0005   159.4164   -41.1662     3.1232    31.9499    14.7000     2.0000     1.0000   299.9810     0.000
     13     2.0000    -0.0000    -0.0001    17.0001     26.497     27.000 194311.000     30.000    45.4872   -20.0773   -27.7029   120.0962    -0.1480    -3.0001   -51.6345     0.0000     0.0000     0.0000     1.0000   300.0000   300.0000   -40.8300    52.6570    -1.9790    -1.4485    20.0000    20.0000    10.0000    20.0000    26.0000    10.0000    16.0000    20.0000    -0.0005     0.0005   159.4164   -41.1662     3.1231    31.7001    14.7000     2.0000     1.0000   299.9790     0.000
     14     2.0000     0.0000    -0.0001    16.7497     26.462     29.000 194311.000     30.000    45.6676   -20.0773   -27.8152   120.0962    -0.1480    -3.0001   -51.4143     0.0000     0.0000     0.0000     1.0000   300.0000   300.0000   -41.0021    52.9027    -1.9790    -1.4485    20.0000    20.0000    10.0000    20.0000    26.0000    10.0000    16.0000    20.0000    -0.0005     0.0005   159.4164   -41.1662     3.1232    31.4497    14.7000     2.0000     1.0000   300.0110     0.000
     15     2.0000    -0.0000    -0.0001    16.5001     26.570     18.000 194311.000     30.000    45.8503   -20.0773   -27.9285   120.0962    -0.1480    -3.0001   -51.1934     0.0000     0.0000     0.0000     1.0000   300.0000   300.0000   -41.1744    53.1485    -1.9790    -1.4485    20.0000    20.0000    10.0000    20.0000    26.0000    10.0000    16.0000    20.0000    -0.0005     0.0005   159.4164   -41.1662     3.1232    31.2001    14.7000     2.0000     1.0000   299.9970     0.000
     16     2.0001    -0.0000    -0.0001    16.2499     26.573     27.000 194311.000     30.000    46.0351   -20.0773   -28.0435   120.0962    -0.1480    -3.0001   -50.9717     0.0000     0.0000     0.0000     1.0000   300.0000   300.0000   -41.3462    53.3972    -1.9790    -1.4485    20.0000    20.0000    10.0000    20.0000    26.0000    10.0000    16.0000    20.0000    -0.0005     0.0005   159.4164   -41.1662     3.1233    30.9499    14.7000     2.0000     1.0000   300.0100     0.000
     17     2.0000     0.0000    -0.0001    15.9996     26.687     29.000 194311.000     30.000    46.2221   -20.0773   -28.1599   120.0962    -0.1480    -3.0001   -50.7492     0.0000     0.0000     0.0000     1.0000   300.0000   300.0000   -41.5181    53.6414    -1.9790    -1.4485    20.0000    20.0000    10.0000    20.0000    26.0000    10.0000    16.0000    20.0000    -0.0005     0.0005   159.4164   -41.1662     3.1232    30.6996    14.7000     2.0000     1.0000   300.0150     0.000
     18     2.0000    -0.0000    -0.0001    15.7507     26.725     25.000 194311.000     30.000    46.4115   -20.0773   -28.2772   120.0962    -0.1480    -3.0001   -50.5260     0.0000     0.0000     0.0000     1.0000   300.0000   300.0000   -41.6898    53.8871    -1.9790    -1.4485    20.0000    20.0000    10.0000    20.0000    26.0000    10.0000    16.0000    20.0000    -0.0005     0.0005   159.4164   -41.1662     3.1231    30.4507    14.7000     2.0000     1.0000   299.9870     0.000
     19     2.0000     0.0000    -0.0001    15.4997     26.885     34.000 194311.000     30.000    46.6032   -20.0773   -28.3969   120.0962    -0.1480    -3.0001   -50.3021     0.0000     0.0000     0.0000     1.0000   300.0000   300.0000   -41.8614    54.1367    -1.9790    -1.4485    20.0000    20.0000    10.0000    20.0000    26.0000    10.0000    16.0000    20.0000    -0.0005     0.0005   159.4164   -41.1662     3.1232    30.1997    14.7000     2.0000     1.0000   300.0070     0.000
     20     2.0001    -0.0000    -0.0001    15.2499     26.988     27.000 194311.000     30.000    46.7972   -20.0773   -28.5176   120.0962    -0.1480    -3.0001   -50.0773     0.0000     0.0000     0.0000     1.0000   300.0000   300.0000   -42.0326    54.3867    -1.9790    -1.4485    20.0000    20.0000    10.0000    20.0000    26.0000    10.0000    16.0000    20.0000    -0.0005     0.0005   159.4164   -41.1662     3.1233    29.9499    14.7000     2.0000     1.0000   299.9960     0.000
     21     2.0000    -0.0000    -0.0001    15.0003     27.044     37.000 194311.000     30.000    46.9938   -20.0773   -28.6397   120.0962    -0.1480    -3.0001   -49.8518     0.0000     0.0000     0.0000     1.0000   300.0000   300.0000   -42.2041    54.6332    -1.9790    -1.4485    20.0000    20.0000    10.0000    20.0000    26.0000    10.0000    16.0000    20.0000    -0.0005     0.0005   159.4164   -41.1662     3.1232    29.7003    14.7000     2.0000     1.0000   300.0210     0.000
     22     2.0000     0.0000    -0.0001    14.7496     27.087     34.000 194311.000     30.000    47.1929   -20.0773   -28.7640   120.0962    -0.1480    -3.0001   -49.6254     0.0000     0.0000     0.0000     1.0000   300.0000   300.0000   -42.3749    54.8816    -1.9790    -1.4485    20.0000    20.0000    10.0000    20.0000    26.0000    10.0000    16.0000    20.0000    -0.0005     0.0005   159.4164   -41.1662     3.1231    29.4496    14.7000     2.0000     1.0000   300.0090     0.000
     23     2.0000    -0.0000    -0.0001    14.5001     26.662     25.000 194311.000     30.000    47.3944   -20.0773   -28.8892   120.0962    -0.1480    -3.0001   -49.3982     0.0000     0.0000     0.0000     1.0000   300.0000   300.0000   -42.5459    55.1334    -1.9790    -1.4485    20.0000    20.0000    10.0000    20.0000    26.0000    10.0000    16.0000    20.0000    -0.0005     0.0005   159.4164   -41.1662     3.1232    29.2001    14.7000     2.0000     1.0000   299.9980     0.000
     24     2.0001    -0.0000    -0.0001    14.2505     26.314     18.000 194311.000     30.000    47.5986   -20.0773   -29.0162   120.0962    -0.1480    -3.0001   -49.1702     0.0000     0.0000     0.0000     1.0000   300.0000   300.0000   -42.7169    55.3863    -1.9790    -1.4485    20.0000    20.0000    10.0000    20.0000    26.0000    10.0000    16.0000    20.0000    -0.0005     0.0005   159.4164   -41.1662     3.1233    28.9505    14.7000     2.0000     1.0000   299.9860     0.000
     25     2.0000     0.0000    -0.0001    13.9994     25.968     32.000 194311.000     30.000    47.8055   -20.0773   -29.1456   120.0962    -0.1480    -3.0001   -48.9414     0.0000     0.0000     0.0000     1.0000   300.0000   300.0000   -42.8874    55.6348    -1.9790    -1.4485    20.0000    20.0000    10.0000    20.0000    26.0000    10.0000    16.0000    20.0000    -0.0005     0.0005   159.4164   -41.1662     3.1231    28.6995    14.7000     2.0000     1.0000   300.0120     0.000
     26     2.0000    -0.0000    -0.0001    13.7503     25.660     34.000 194311.000     30.000    48.0151   -20.0773   -29.2758   120.0962    -0.1480    -3.0001   -48.7117     0.0000     0.0000     0.0000     1.0000   300.0000   300.0000   -43.0583    55.8859    -1.9790    -1.4485    20.0000    20.0000    10.0000    20.0000    26.0000    10.0000    16.0000    20.0000    -0.0005     0.0005   159.4164   -41.1662     3.1231    28.4503    14.7000     2.0000     1.0000   299.9740     0.000
     27     2.0000    -0.0000    -0.0001    13.5004     25.309     46.000 194311.000     30.000    48.2274   -20.0773   -29.4082   120.0962    -0.1480    -3.0001   -48.4811     0.0000     0.0000     0.0000     1.0000   300.0000   300.0000   -43.2286    56.1403    -1.9790    -1.4485    20.0000    20.0000    10.0000    20.0000    26.0000    10.0000    16.0000    20.0000    -0.0005     0.0005   159.4164   -41.1662     3.1232    28.2004    14.7000     2.0000     1.0000   300.0130     0.000
     28     2.0001    -0.0000    -0.0001    13.2496     25.434     41.000 194311.000     30.000    48.4427   -20.0773   -29.5428   120.0962    -0.1480    -3.0001   -48.2497     0.0000     0.0000     0.0000     1.0000   300.0000   300.0000   -43.3990    56.3964    -1.9790    -1.4485    20.0000    20.0000    10.0000    20.0000    26.0000    10.0000    16.0000    20.0000    -0.0005     0.0005   159.4164   -41.1662     3.1233    27.9496    14.7000     2.0000     1.0000   300.0040     0.000
     29     2.0000     0.0000    -0.0001    13.0000     25.515     39.000 194311.000     30.000    48.6608   -20.0773   -29.6786   120.0962    -0.1480    -3.0001   -48.0174     0.0000     0.0000     0.0000     1.0000   300.0000   300.0000   -43.5691    56.6464    -1.9790    -1.4485    20.0000    20.0000    10.0000    20.0000    26.0000    10.0000    16.0000    20.0000    -0.0005     0.0005   159.4164   -41.1662     3.1231    27.7000    14.7000     2.0000     1.0000   300.0120     0.000
     30     2.0000     0.0000    -0.0001    12.7500     25.893     60.000 194311.000     30.000    48.8819   -20.0773   -29.8166   120.0962    -0.1480    -3.0001   -47.7842     0.0000     0.0000     0.0000     1.0000   300.0000   300.0000   -43.7392    56.9029    -1.9790    -1.4485    20.0000    20.0000    10.0000    20.0000    26.0000    10.0000    16.0000    20.0000    -0.0005     0.0005   159.4164   -41.1662     3.1232    27.4500    14.7000     2.0000     1.0000   300.0170     0.000
     31     2.0000     0.0000    -0.0001    12.4999     26.281     47.000 194311.000     30.000    49.1060   -20.0773   -29.9566   120.0962    -0.1480    -3.0001   -47.5501     0.0000     0.0000     0.0000     1.0000   300.0000   300.0000   -43.9091    57.1590    -1.9790    -1.4485    20.0000    20.0000    10.0000    20.0000    26.0000    10.0000    16.0000    20.0000    -0.0005     0.0005   159.4164   -41.1662     3.1232    27.1999    14.7000     2.0000     1.0000   299.9470     0.000
     32     2.0001    -0.0000    -0.0001    12.2503     26.663     46.000 194311.000     30.000    49.3332   -20.0773   -30.0982   120.0962    -0.1480    -3.0001   -47.3151     0.0000     0.0000     0.0000     1.0000   300.0000   300.0000   -44.0794    57.4166    -1.9790    -1.4485    20.0000    20.0000    10.0000    20.0000    26.0000    10.0000    16.0000    20.0000    -0.0005     0.0005   159.4164   -41.1662     3.1232    26.9504    14.7000     2.0000     1.0000   299.9970     0.000
     33     2.0000     0.0000    -0.0001    11.9999     26.773     48.000 194311.000     30.000    49.5636   -20.0773   -30.2424   120.0962    -0.1480    -3.0001   -47.0791     0.0000     0.0000     0.0000     1.0000   300.0000   300.0000   -44.2490    57.6727    -1.9790    -1.4485    20.0000    20.0000    10.0000    20.0000    26.0000    10.0000    16.0000    20.0000    -0.0005     0.0005   159.4164   -41.1662     3.1231    26.6999    14.7000     2.0000     1.0000   300.0070     0.000
     34     2.0000    -0.0000    -0.0001    11.7501     26.867     42.000 194311.000     30.000    49.7973   -20.0773   -30.3883   120.0962    -0.1480    -3.0001   -46.8422     0.0000     0.0000     0.0000     1.0000   300.0000   300.0000   -44.4188    57.9324    -1.9790    -1.4485    20.0000    20.0000    10.0000    20.0000    26.0000    10.0000    16.0000    20.0000    -0.0005     0.0005   159.4164   -41.1662     3.1232    26.4501    14.7000     2.0000     1.0000   299.9970     0.000
     35     2.0001    -0.0000    -0.0001    11.5003     26.893     56.000 194311.000     30.000    50.0343   -20.0773   -30.5363   120.0962    -0.1480    -3.0001   -46.6044     0.0000     0.0000     0.0000     1.0000   300.0000   300.0000   -44.5881    58.1932    -1.9790    -1.4485    20.0000    20.0000    10.0000    20.0000    26.0000    10.0000    16.0000    20.0000    -0.0005     0.0005   159.4164   -41.1662     3.1233    26.2003    14.7000     2.0000     1.0000   300.0110     0.000
     36     2.0000     0.0000    -0.0001    11.2501     26.607     64.000 194311.000     30.000    50.2748   -20.0773   -30.6868   120.0962    -0.1480    -3.0001   -46.3655     0.0000     0.0000     0.0000     1.0000   300.0000   300.0000   -44.7578    58.4509    -1.9790    -1.4485    20.0000    20.0000    10.0000    20.0000    26.0000    10.0000    16.0000    20.0000    -0.0005     0.0005   159.4164   -41.1662     3.1231    25.9501    14.7000     2.0000     1.0000   300.0160     0.000
     37     2.0000    -0.0000    -0.0001    10.9999     26.427     68.000 194311.000     30.000    50.5187   -20.0773   -30.8395   120.0962    -0.1480    -3.0001   -46.1257     0.0000     0.0000     0.0000     1.0000   300.0000   300.0000   -44.9273    58.7133    -1.9790    -1.4485    20.0000    20.0000    10.0000    20.0000    26.0000    10.0000    16.0000    20.0000    -0.0005     0.0005   159.4164   -41.1662     3.1232    25.6999    14.7000     2.0000     1.0000   300.0020     0.000
     38     2.0001    -0.0000    -0.0001    10.7500     26.094     63.000 194311.000     30.000    50.7662   -20.0773   -30.9943   120.0962    -0.1480    -3.0001   -45.8849     0.0000     0.0000     0.0000     1.0000   300.0000   300.0000   -45.0966    58.9773    -1.9790    -1.4485    20.0000    20.0000    10.0000    20.0000    26.0000    10.0000    16.0000    20.0000    -0.0005     0.0005   159.4164   -41.1662     3.1233    25.4501    14.7000     2.0000     1.0000   299.9910     0.000
     39     2.0000     0.0000    -0.0001    10.5001     26.082     65.000 194311.000     30.000    51.0174   -20.0773   -31.1515   120.0962    -0.1480    -3.0001   -45.6430     0.0000     0.0000     0.0000     1.0000   300.0000   300.0000   -45.2656    59.2383    -1.9790    -1.4485    20.0000    20.0000    10.0000    20.0000    26.0000    10.0000    16.0000    20.0000    -0.0005     0.0005   159.4164   -41.1662     3.1232    25.2001    14.7000     2.0000     1.0000   299.9380     0.000
     40     2.0000    -0.0000    -0.0001    10.2502     26.181     64.000 194311.000     30.000    51.2724   -20.0773   -31.3111   120.0962    -0.1480    -3.0001   -45.4002     0.0000     0.0000     0.0000     1.0000   300.0000   300.0000   -45.4351    59.5029    -1.9790    -1.4485    20.0000    20.0000    10.0000    20.0000    26.0000    10.0000    16.0000    20.0000    -0.0005     0.0005   159.4164   -41.1662     3.1232    24.9502    14.7000     2.0000     1.0000   299.9990     0.000
     41     2.0001    -0.0000    -0.0001     9.9999     26.452     84.000 194311.000     30.000    51.5312   -20.0773   -31.4734   120.0962    -0.1480    -3.0001   -45.1562     0.0000     0.0000     0.0000     1.0000   300.0000   300.0000   -45.6039    59.7708    -1.9790    -1.4485    20.0000    20.0000    10.0000    20.0000    26.0000    10.0000    16.0000    20.0000    -0.0005     0.0005   159.4164   -41.1662     3.1233    24.6999    14.7000     2.0000     1.0000   300.0260     0.000
     42     2.0000     0.0000    -0.0001     9.7498     26.834     91.000 194311.000     30.000    51.7940   -20.0773   -31.6382   120.0962    -0.1480    -3.0001   -44.9112     0.0000     0.0000     0.0000     1.0000   300.0000   300.0000   -45.7726    60.0359    -1.9790    -1.4485    20.0000    20.0000    10.0000    20.0000    26.0000    10.0000    16.0000    20.0000    -0.0005     0.0005   159.4164   -41.1662     3.1232    24.4498    14.7000     2.0000     1.0000   300.0060     0.000
     43     2.0000    -0.0000    -0.0001     9.4997     27.308     88.000 194311.000     30.000    52.0609   -20.0773   -31.8056   120.0962    -0.1480    -3.0001   -44.6652     0.0000     0.0000     0.0000     1.0000   300.0000   300.0000   -45.9417    60.3035    -1.9790    -1.4485    20.0000    20.0000    10.0000    20.0000    26.0000    10.0000    16.0000    20.0000    -0.0005     0.0005   159.4164   -41.1662     3.1232    24.1997    14.7000     2.0000     1.0000   300.0080     0.000
     44     2.0001    -0.0000    -0.0001     9.2503     27.455     81.000 194311.000     30.000    52.3319   -20.0773   -31.9752   120.0962    -0.1480    -3.0001   -44.4180     0.0000     0.0000     0.0000     1.0000   300.0000   300.0000   -46.1104    60.5733    -1.9790    -1.4485    20.0000    20.0000    10.0000    20.0000    26.0000    10.0000    16.0000    20.0000    -0.0005     0.0005   159.4164   -41.1662     3.1233    23.9503    14.7000     2.0000     1.0000   300.0040     0.000
     45     2.0000    -0.0000    -0.0001     9.0000     27.268     71.000 194311.000     30.000    52.6071   -20.0773   -32.1481   120.0962    -0.1480    -3.0001   -44.1697     0.0000     0.0000     0.0000     1.0000   300.0000   300.0000   -46.2792    60.8428    -1.9790    -1.4485    20.0000    20.0000    10.0000    20.0000    26.0000    10.0000    16.0000    20.0000    -0.0005     0.0005   159.4164   -41.1662     3.1232    23.7000    14.7000     2.0000     1.0000   299.9990     0.000
     46     2.0000    -0.0000    -0.0001     8.7501     26.703     88.000 194311.000     30.000    52.8868   -20.0773   -32.3236   120.0962    -0.1480    -3.0001   -43.9203     0.0000     0.0000     0.0000     1.0000   300.0000   300.0000   -46.4474    61.1135    -1.9790    -1.4485    20.0000    20.0000    10.0000    20.0000    26.0000    10.0000    16.0000    20.0000    -0.0005     0.0005   159.4164   -41.1662     3.1232    23.4501    14.7000     2.0000     1.0000   300.0070     0.000
     47     2.0001    -0.0001    -0.0001     8.5002     25.918     85.000 194311.000     30.000    53.1710   -20.0773   -32.5020   120.0962    -0.1480    -3.0001   -43.6697     0.0000     0.0000     0.0000     1.0000   300.0000   300.0000   -46.6163    61.3893    -1.9790    -1.4485    20.0000    20.0000    10.0000    20.0000    26.0000    10.0000    16.0000    20.0000    -0.0005     0.0005   159.4164   -41.1662     3.1233    23.2002    14.7000     2.0000     1.0000   299.9880     0.000
     48     2.0000     0.0000    -0.0001     8.2498     25.167     89.000 194311.000     30.000    53.4598   -20.0773   -32.6838   120.0962    -0.1480    -3.0001   -43.4180     0.0000     0.0000     0.0000     1.0000   300.0000   300.0000   -46.7844    61.6599    -1.9790    -1.4485    20.0000    20.0000    10.0000    20.0000    26.0000    10.0000    16.0000    20.0000    -0.0005     0.0005   159.4164   -41.1662     3.1232    22.9498    14.7000     2.0000     1.0000   299.9940     0.000
     49     2.0000    -0.0000    -0.0001     8.0000     24.471    110.000 194311.000     30.000    53.7534   -20.0773   -32.8682   120.0962    -0.1480    -3.0001   -43.1651     0.0000     0.0000     0.0000     1.0000   300.0000   300.0000   -46.9526    61.9357    -1.9790    -1.4485    20.0000    20.0000    10.0000    20.0000    26.0000    10.0000    16.0000    20.0000    -0.0005     0.0005   159.4164   -41.1662     3.1232    22.7000    14.7000     2.0000     1.0000   299.9830     0.000
     50     2.0001    -0.0000    -0.0001     7.7498     24.002    110.000 194311.000     30.000    54.0519   -20.0773   -33.0561   120.0962    -0.1480    -3.0001   -42.9109     0.0000     0.0000     0.0000     1.0000   300.0000   300.0000   -47.1209    62.2139    -1.9790    -1.4485    20.0000    20.0000    10.0000    20.0000    26.0000    10.0000    16.0000    20.0000    -0.0005     0.0005   159.4164   -41.1662     3.1232    22.4499    14.7000     2.0000     1.0000   300.0070     0.000
     51     2.0000    -0.0000    -0.0001     7.5001     23.819    101.000 194311.000     30.000    54.3554   -20.0773   -33.2469   120.0962    -0.1480    -3.0001   -42.6556     0.0000     0.0000     0.0000     1.0000   300.0000   300.0000   -47.2891    62.4895    -1.9790    -1.4485    20.0000    20.0000    10.0000    20.0000    26.0000    10.0000    16.0000    20.0000    -0.0005     0.0005   159.4164   -41.1662     3.1231    22.2001    14.7000     2.0000     1.0000   300.0090     0.000
     52     2.0000    -0.0000    -0.0001     7.2502     23.911     98.000 194311.000     30.000    54.6640   -20.0773   -33.4411   120.0962    -0.1480    -3.0001   -42.3989     0.0000     0.0000     0.0000     1.0000   300.0000   300.0000   -47.4566    62.7706    -1.9790    -1.4485    20.0000    20.0000    10.0000    20.0000    26.0000    10.0000    16.0000    20.0000    -0.0005     0.0005   159.4164   -41.1662     3.1232    21.9502    14.7000     2.0000     1.0000   299.9420     0.000
     53     1.9999     0.0000    -0.0001     6.9996     23.803    119.000 194311.000     30.000    54.9780   -20.0773   -33.6394   120.0962    -0.1480    -3.0001   -42.1410     0.0000     0.0000     0.0000     1.0000   300.0000   300.0000   -47.6247    63.0493    -1.9790    -1.4485    20.0000    20.0000    10.0000    20.0000    26.0000    10.0000    16.0000    20.0000    -0.0005     0.0005   159.4164   -41.1662     3.1230    21.6996    14.7000     2.0000     1.0000   300.0150     0.000
     54     2.0000    -0.0000    -0.0001     6.7503     23.883    113.000 194311.000     30.000    55.2975   -20.0773   -33.8401   120.0962    -0.1480    -3.0001   -41.8818     0.0000     0.0000     0.0000     1.0000   300.0000   300.0000   -47.7926    63.3349    -1.9790    -1.4485    20.0000    20.0000    10.0000    20.0000    26.0000    10.0000    16.0000    20.0000    -0.0005     0.0005   159.4164   -41.1662     3.1232    21.4503    14.7000     2.0000     1.0000   300.0020     0.000
     55     2.0000     0.0000    -0.0001     6.4998     24.125    110.000 194311.000     30.000    55.6225   -20.0773   -34.0455   120.0962    -0.1480    -3.0001   -41.6214     0.0000     0.0000     0.0000     1.0000   300.0000   300.0000   -47.9600    63.6184    -1.9790    -1.4485    20.0000    20.0000    10.0000    20.0000    26.0000    10.0000    16.0000    20.0000    -0.0005     0.0005   159.4164   -41.1662     3.1231    21.1998    14.7000     2.0000     1.0000   300.0160     0.000
     56     2.0000    -0.0000    -0.0001     6.2500     24.296    115.000 194311.000     30.000    55.9535   -20.0773   -34.2541   120.0962    -0.1480    -3.0001   -41.3595     0.0000     0.0000     0.0000     1.0000   300.0000   300.0000   -48.1275    63.9050    -1.9790    -1.4485    20.0000    20.0000    10.0000    20.0000    26.0000    10.0000    16.0000    20.0000    -0.0005     0.0005   159.4164   -41.1662     3.1232    20.9500    14.7000     2.0000     1.0000   300.0150     0.000
     57     2.0000    -0.0000    -0.0001     5.9999     24.731    114.000 194311.000     30.000    56.2903   -20.0773   -34.4668   120.0962    -0.1480    -3.0001   -41.0963     0.0000     0.0000     0.0000     1.0000   300.0000   300.0000   -48.2951    64.1932    -1.9790    -1.4485    20.0000    20.0000    10.0000    20.0000    26.0000    10.0000    16.0000    20.0000    -0.0005     0.0005   159.4164   -41.1662     3.1232    20.6999    14.7000     2.0000     1.0000   299.9970     0.000
     58     2.0000     0.0000    -0.0001     5.7502     25.084    122.000 194311.000     30.000    56.6333   -20.0773   -34.6833   120.0962    -0.1480    -3.0001   -40.8317     0.0000     0.0000     0.0000     1.0000   300.0000   300.0000   -48.4623    64.4812    -1.9790    -1.4485    20.0000    20.0000    10.0000    20.0000    26.0000    10.0000    16.0000    20.0000    -0.0005     0.0005   159.4164   -41.1662     3.1231    20.4502    14.7000     2.0000     1.0000   299.9870     0.000
     59     2.0000    -0.0000    -0.0001     5.4998     25.538    131.000 194311.000     30.000    56.9827   -20.0773   -34.9044   120.0962    -0.1480    -3.0001   -40.5656     0.0000     0.0000     0.0000     1.0000   300.0000   300.0000   -48.6295    64.7743    -1.9790    -1.4485    20.0000    20.0000    10.0000    20.0000    26.0000    10.0000    16.0000    20.0000    -0.0005     0.0005   159.4164   -41.1662     3.1232    20.1998    14.7000     2.0000     1.0000   300.0140     0.000
     60     2.0000     0.0000    -0.0001     5.2501     25.854    153.000 194311.000     30.000    57.3387   -20.0773   -35.1292   120.0962    -0.1480    -3.0001   -40.2982     0.0000     0.0000     0.0000     1.0000   300.0000   300.0000   -48.7963    65.0657    -1.9790    -1.4485    20.0000    20.0000    10.0000    20.0000    26.0000    10.0000    16.0000    20.0000    -0.0005     0.0005   159.4164   -41.1662     3.1231    19.9501    14.7000     2.0000     1.0000   300.0040     0.000
     61     2.0000    -0.0000    -0.0001     5.0000     26.217    133.000 194311.000     30.000    57.7013   -20.0773   -35.3589   120.0962    -0.1480    -3.0001   -40.0292     0.0000     0.0000     0.0000     1.0000   300.0000   300.0000   -48.9631    65.3627    -1.9790    -1.4485    20.0000    20.0000    10.0000    20.0000    26.0000    10.0000    16.0000    20.0000    -0.0005     0.0005   159.4164   -41.1662     3.1232    19.7000    14.7000     2.0000     1.0000   300.0050     0.000
     62     2.0000     0.0000    -0.0001     4.7502     26.347    143.000 194311.000     30.000    58.0709   -20.0773   -35.5928   120.0962    -0.1480    -3.0001   -39.7588     0.0000     0.0000     0.0000     1.0000   300.0000   300.0000   -49.1296    65.6574    -1.9790    -1.4485    20.0000    20.0000    10.0000    20.0000    26.0000    10.0000    16.0000    20.0000    -0.0005     0.0005   159.4164   -41.1662     3.1231    19.4502    14.7000     2.0000     1.0000   300.0130     0.000
     63     2.0000    -0.0000    -0.0001     4.4998     26.354    180.000 194311.000     30.000    58.4478   -20.0773   -35.8319   120.0962    -0.1480    -3.0001   -39.4868     0.0000     0.0000     0.0000     1.0000   300.0000   300.0000   -49.2964    65.9599    -1.9790    -1.4485    20.0000    20.0000    10.0000    20.0000    26.0000    10.0000    16.0000    20.0000    -0.0005     0.0005   159.4164   -41.1662     3.1232    19.1999    14.7000     2.0000     1.0000   300.0190     0.000
     64     2.0000     0.0000    -0.0001     4.2500     26.655    193.000 194311.000     30.000    58.8321   -20.0773   -36.0754   120.0962    -0.1480    -3.0001   -39.2133     0.0000     0.0000     0.0000     1.0000   300.0000   300.0000   -49.4625    66.2586    -1.9790    -1.4485    20.0000    20.0000    10.0000    20.0000    26.0000    10.0000    16.0000    20.0000    -0.0005     0.0005   159.4164   -41.1662     3.1231    18.9500    14.7000     2.0000     1.0000   300.0010     0.000
     65     2.0001    -0.0000    -0.0001     3.9999     26.866    222.000 194311.000     30.000    59.2240   -20.0773   -36.3241   120.0962    -0.1480    -3.0001   -38.9382     0.0000     0.0000     0.0000     1.0000   300.0000   300.0000   -49.6290    66.5659    -1.9790    -1.4485    20.0000    20.0000    10.0000    20.0000    26.0000    10.0000    16.0000    20.0000    -0.0005     0.0005   159.4164   -41.1662     3.1232    18.6999    14.7000     2.0000     1.0000   300.0230     0.000
     66     2.0000     0.0000    -0.0001     3.7501     27.366    300.000 194311.000     30.000    59.6240   -20.0773   -36.5779   120.0962    -0.1480    -3.0001   -38.6614     0.0000     0.0000     0.0000     1.0000   300.0000   300.0000   -49.7946    66.8686    -1.9790    -1.4485    20.0000    20.0000    10.0000    20.0000    26.0000    10.0000    16.0000    20.0000    -0.0005     0.0005   159.4164   -41.1662     3.1231    18.4501    14.7000     2.0000     1.0000   300.0000     0.000
     67     2.0001    -0.0000    -0.0001     3.5001     27.918    364.000 194311.000     30.000    60.0321   -20.0773   -36.8373   120.0962    -0.1480    -3.0001   -38.3830     0.0000     0.0000     0.0000     1.0000   300.0000   300.0000   -49.9601    67.1812    -1.9790    -1.4485    20.0000    20.0000    10.0000    20.0000    26.0000    10.0000    16.0000    20.0000    -0.0005     0.0005   159.4164   -41.1662     3.1233    18.2001    14.7000     2.0000     1.0000   299.9980     0.000
     68     2.0000     0.0000    -0.0001     3.2499     28.962    475.000 194311.000     30.000    60.4487   -20.0773   -37.1024   120.0962    -0.1480    -3.0001   -38.1029     0.0000     0.0000     0.0000     1.0000   300.0000   300.0000   -50.1258    67.4881    -1.9790    -1.4485    20.0000    20.0000    10.0000    20.0000    26.0000    10.0000    16.0000    20.0000    -0.0005     0.0005   159.4164   -41.1662     3.1231    17.9499    14.7000     2.0000     1.0000   300.0080     0.000
     69     2.0001    -0.0000    -0.0001     3.0003     29.624    543.000 194311.000     30.000    60.8740   -20.0773   -37.3727   120.0962    -0.1480    -3.0001   -37.8211     0.0000     0.0000     0.0000     1.0000   300.0000   300.0000   -50.2911    67.8040    -1.9790    -1.4485    20.0000    20.0000    10.0000    20.0000    26.0000    10.0000    16.0000    20.0000    -0.0005     0.0005   159.4164   -41.1662     3.1232    17.7003    14.7000     2.0000     1.0000   300.0030     0.000
     70     2.0000    -0.0000    -0.0001     2.7499     29.841    771.000 194311.000     30.000    61.3086   -20.0773   -37.6499   120.0962    -0.1480    -3.0001   -37.5375     0.0000     0.0000     0.0000     1.0000   300.0000   300.0000   -50.4561    68.1184    -1.9790    -1.4485    20.0000    20.0000    10.0000    20.0000    26.0000    10.0000    16.0000    20.0000    -0.0005     0.0005   159.4164   -41.1662     3.1232    17.4499    14.7000     2.0000     1.0000   300.0110     0.000
     71     2.0000     0.0000    -0.0001     2.5000     29.140   1061.000 194311.000     30.000    61.7525   -20.0773   -37.9328   120.0962    -0.1480    -3.0001   -37.2522     0.0000     0.0000     0.0000     1.0000   300.0000   300.0000   -50.6208    68.4349    -1.9790    -1.4485    20.0000    20.0000    10.0000    20.0000    26.0000    10.0000    16.0000    20.0000    -0.0005     0.0005   159.4164   -41.1662     3.1231    17.2000    14.7000     2.0000     1.0000   299.9900     0.000
     72     2.0000     0.0000    -0.0001     2.2499     29.459   1342.000 194311.000     30.000    62.2063   -20.0773   -38.2224   120.0962    -0.1480    -3.0001   -36.9649     0.0000     0.0000     0.0000     1.0000   300.0000   300.0000   -50.7850    68.7578    -1.9790    -1.4485    20.0000    20.0000    10.0000    20.0000    26.0000    10.0000    16.0000    20.0000    -0.0005     0.0005   159.4164   -41.1662     3.1232    16.9499    14.7000     2.0000     1.0000   299.9980     0.000
     73     2.0000     0.0000    -0.0001     2.0000     29.759   1894.000 194311.000     30.000    62.6702   -20.0773   -38.5184   120.0962    -0.1480    -3.0001   -36.6758     0.0000     0.0000     0.0000     1.0000   300.0000   300.0000   -50.9495    69.0798    -1.9790    -1.4485    20.0000    20.0000    10.0000    20.0000    26.0000    10.0000    16.0000    20.0000    -0.0005     0.0005   159.4164   -41.1662     3.1231    16.7000    14.7000     2.0000     1.0000   299.9930     0.000
     74     2.0001    -0.0000    -0.0001     1.7499     30.252   2404.000 194311.000     30.000    63.1445   -20.0773   -38.8218   120.0962    -0.1480    -3.0001   -36.3848     0.0000     0.0000     0.0000     1.0000   300.0000   300.0000   -51.1130    69.4107    -1.9790    -1.4485    20.0000    20.0000    10.0000    20.0000    26.0000    10.0000    16.0000    20.0000    -0.0005     0.0005   159.4164   -41.1662     3.1232    16.4499    14.7000     2.0000     1.0000   299.9990     0.000
     75     2.0000    -0.0000    -0.0001     1.5000     30.678   3313.000 194311.000     30.000    63.6299   -20.0773   -39.1322   120.0962    -0.1480    -3.0001   -36.0918     0.0000     0.0000     0.0000     1.0000   300.0000   300.0000   -51.2763    69.7395    -1.9790    -1.4485    20.0000    20.0000    10.0000    20.0000    26.0000    10.0000    16.0000    20.0000    -0.0005     0.0005   159.4164   -41.1662     3.1232    16.2000    14.7000     2.0000     1.0000   299.9900     0.000
     76     2.0000     0.0000    -0.0001     1.2500     31.684   4843.000 194311.000     30.000    64.1267   -20.0773   -39.4503   120.0962    -0.1480    -3.0001   -35.7968     0.0000     0.0000     0.0000     1.0000   300.0000   300.0000   -51.4396    70.0706    -1.9790    -1.4485    20.0000    20.0000    10.0000    20.0000    26.0000    10.0000    16.0000    20.0000    -0.0005     0.0005   159.4164   -41.1662     3.1231    15.9500    14.7000     2.0000     1.0000   300.0130     0.000
     77     2.0001    -0.0000    -0.0001     1.0000     33.109   7280.000 194311.000     30.000    64.6352   -20.0773   -39.7763   120.0962    -0.1480    -3.0001   -35.4997     0.0000     0.0000     0.0000     1.0000   300.0000   300.0000   -51.6018    70.4101    -1.9790    -1.4485    20.0000    20.0000    10.0000    20.0000    26.0000    10.0000    16.0000    20.0000    -0.0005     0.0005   159.4164   -41.1662     3.1232    15.7001    14.7000     2.0000     1.0000   299.9960     0.000
     78     2.0000    -0.0000    -0.0001     0.7500     33.508  14155.000 194311.000     30.000    65.1560   -20.0773   -40.1105   120.0962    -0.1480    -3.0001   -35.2005     0.0000     0.0000     0.0000     1.0000   300.0000   300.0000   -51.7644    70.7483    -1.9790    -1.4485    20.0000    20.0000    10.0000    20.0000    26.0000    10.0000    16.0000    20.0000    -0.0005     0.0005   159.4164   -41.1662     3.1232    15.4500    14.7000     2.0000     1.0000   300.0000     0.000
     79     2.0000     0.0000    -0.0001     0.5001     32.850 902780.000 194311.000     30.000    65.6897   -20.0773   -40.4532   120.0962    -0.1480    -3.0001   -34.8991     0.0000     0.0000     0.0000     1.0000   300.0000   300.0000   -51.9256    71.0899    -1.9790    -1.4485    20.0000    20.0000    10.0000    20.0000    26.0000    10.0000    16.0000    20.0000    -0.0005     0.0005   159.4164   -41.1662     3.1231    15.2001    14.7000     2.0000     1.0000   299.9950     0.000
# Sum of Counts = 945972
# Center of Mass = 0.573444+/-0.001097
# Full Width Half-Maximum = 1.385948+/-0.013334
# 4:09:50 AM  9/9/2024   scan completed.
