# scan = 723
# date = 2/22/2025
# time = 1:26:20 PM
# proposal = 33477
# experiment = Commissioning and enabling the 4-circle capability at VERITAS
# experiment_number = 1046
# command = scanrel omega 1.5 -1.5 0.1
# builtin_command = scan omega @(omega)+1.5 @(omega)+-1.5 0.100000
# users = Feng Ye, Mike McDowell, Jiasen Guo, Adam Aczel, Kaleb Burrage, Wei Tian, Bing Li, Zachary Morgan
# local_contact = Wei Tian
# scan_title = MnWO4, CM (0.25 0.5 -0.5) ( -0.070526 -0.392171 -0.323379 ) rocking at T = 4.2555 K
# monochromator = PG002
# analyzer = Pg002
# sense = +-+
# collimation = 40-40-40-80
# samplename = La2Ni7, MnWO4
# sampletype = crystal
# samplemosaic = 30.000000
# latticeconstants = 4.824069,5.755582,4.999231,89.932854,88.939129,90.018476
# ubmatrix = 0.016958,0.172722,0.013747,0.204090,-0.011993,-0.036006,-0.032332,0.014503,-0.196318
# mode = 0
# plane_normal = 0.000000,0.000000,0.000000
# ubconf = UBmatrix-MnWO4-final.dat
# preset_type = normal 
# preset_channel = mcu
# preset_value = 10.000000
# def_x = omega
# def_y = detector
# col_headers = 
#   Pt.      omega       time   detector    monitor        mcu         m2        chi        phi     2theta   slitb_bt   slitb_lf   slitb_rt   slitb_tp   slita_bt   slita_lf   slita_rt   slita_tp         a1         a2          h          k          l          e         ei    coldtip     sample       temp
      1   -41.5220      9.553     16.000 193001.000     10.000    41.5367   -39.3085     0.0002   -88.4031    20.0000     5.0000     4.0000    24.0000    22.0000     4.0000     4.0000    22.0000    20.7701    41.5152    -0.0587    -0.3928    -0.3251     0.0000    14.4503     4.2571    15.2052     4.000
      2   -41.6212      0.000      0.000      0.000     10.000    41.5367   -39.3085     0.0002   -88.4031    20.0000     5.0000     4.0000    24.0000    22.0000     4.0000     4.0000    22.0000    20.7701    41.5152    -0.0595    -0.3928    -0.3250     0.0000    14.4503     4.2551    15.2043     4.000
# Sum of Counts = 16
# Center of Mass = -41.522000+/-14.680244
# Full Width Half-Maximum = 0.000000+/-NaN
# 1:26:33 PM  2/22/2025   scan stopped!!
